File: PeakFitting/xrdData/jacobson_raman/C3_02160_532nm_5sec_5per_50x.txt
#Wave		#Intensity
1818.91	1994.16
1812.64	2012.17
1806.37	2072.81
1800.1	2060.06
1793.82	1939.07
1787.53	2017.1
1781.24	2102.96
1774.95	1971.07
1768.65	2018.72
1762.35	2182.06
1756.04	2135.96
1749.72	2063.02
1743.4	2045.56
1737.08	2088.19
1730.75	2056.51
1724.42	2099.04
1718.08	2139.93
1711.73	2095.66
1705.38	2043.58
1699.03	2104.84
1692.67	2128.27
1686.3	2088.84
1679.93	2101.25
1673.56	2166.94
1667.18	2152.62
1660.79	2224.42
1654.4	2316.42
1648	2278.55
1641.6	2282.9
1635.19	2383.96
1628.78	2480.18
1622.36	2501.46
1615.94	2544.49
1609.51	2707.17
1603.07	2686.24
1596.63	2645.16
1590.19	2737.53
1583.74	2839.03
1577.28	2701.91
1570.82	2711.98
1564.35	2748.31
1557.88	2755.22
1551.4	2657.19
1544.92	2674.95
1538.43	2708.08
1531.93	2627.25
1525.43	2600.38
1518.92	2573.55
1512.41	2608.16
1505.89	2607.43
1499.37	2674.13
1492.84	2710.08
1486.31	2608.28
1479.77	2506.66
1473.22	2600.68
1466.67	2631.97
1460.11	2591.56
1453.55	2528.36
1446.98	2626.58
1440.4	2631.87
1433.82	2608.29
1427.24	2621.17
1420.64	2652.22
1414.05	2669.58
1407.44	2724.74
1400.83	2678.47
1394.22	2715.39
1387.6	2744.69
1380.97	2648.73
1374.33	2684.06
1367.7	2647.04
1361.05	2814.69
1354.4	2773.1
1347.74	2701.56
1341.08	2745.66
1334.41	2731.22
1327.74	2752.75
1321.05	2588.68
1314.37	2729.89
1307.68	2745.37
1300.98	2651.88
1294.27	2567.51
1287.56	2559.25
1280.85	2551
1274.12	2416.37
1267.39	2466.2
1260.66	2431.33
1253.92	2374.28
1247.17	2373.63
1240.42	2414.42
1233.66	2400.42
1226.89	2377.57
1220.12	2424.15
1213.35	2367.39
1206.56	2356.42
1199.77	2455.89
1192.98	2408.07
1186.18	2294.21
1179.37	2365.55
1172.55	2397.16
1165.73	2301.19
1158.91	2385.51
1152.07	2383.36
1145.24	2416.29
1138.39	2484.21
1131.54	2404.63
1124.68	2374.76
1117.82	2490.59
1110.95	2550.91
1104.07	2506.44
1097.19	2460.59
1090.3	2557.05
1083.41	2522.84
1076.51	2504.62
1069.6	2453.14
1062.69	2371.39
1055.77	2440.03
1048.84	2397.41
1041.91	2418.31
1034.97	2316.7
1028.03	2321.8
1021.07	2408.86
1014.12	2398.05
1007.15	2390.13
1000.18	2392.27
993.205	2327.05
986.223	2299.17
979.234	2391.48
972.238	2243.55
965.236	2202.96
958.229	2259.45
951.215	2164.76
944.193	2206.93
937.166	2173.63
930.133	2205.76
923.092	2287.53
916.045	2252.82
908.992	2199.75
901.934	2132.61
894.867	2161.79
887.795	2157
880.717	2163.51
873.631	2206.69
866.539	2176.48
859.441	2108.3
852.338	2131.71
845.227	2261.91
838.109	2146.08
830.984	2132.9
823.854	2170.2
816.717	2197.63
809.574	2219.42
802.424	2271.91
795.268	2156.69
788.104	2098.9
780.934	2225.25
773.758	2095.06
766.574	2249.01
759.385	2202.45
752.189	2146.26
744.986	2224.79
737.777	2211.65
730.561	2331.53
723.338	2280.94
716.109	2270.55
708.873	2344.44
701.631	2429.24
694.381	2374.6
687.125	2393.08
679.863	2433.54
672.594	2401.04
665.318	2511.48
658.035	2612.11
650.744	2674.14
643.449	2755.24
636.146	2729.42
628.836	2983.98
621.52	3142.43
614.195	3286.93
606.865	3442.07
599.529	3613.26
592.186	3781.4
584.834	4037.62
577.477	4426.5
570.111	4630.04
562.74	4906.42
555.361	5178.21
547.977	5085.37
540.584	5260.45
533.186	5385.2
525.779	5351.79
518.365	5075.7
510.945	4870.17
503.52	4484.67
496.084	4466.98
488.645	4309.59
481.195	4199.48
473.74	4151.24
466.277	3928.93
458.809	3666.9
451.332	3591.2
443.848	3515.63
436.355	3473.57
428.857	3436.9
421.354	3319.06
413.84	3265.3
406.32	3149.15
398.793	3147.44
391.258	3148.37
383.717	3202.31
376.168	3142.26
368.611	3039.98
361.047	2918.07
353.477	2886.17
345.896	2929.51
338.311	2901.6
330.717	2911.91
323.117	2903.77
315.508	2822.07
307.891	2844.22
300.268	2621.11
292.637	2689.24
284.998	2719.27
277.352	2653.8
269.697	2722.97
262.035	2641.95
254.365	2636.68
246.688	2683.5
239.002	2566.32
231.311	2605.29
223.609	2593.55
215.9	2702.43
208.184	2608.98
200.459	2659.36
192.727	2582.93
184.986	2608.68
177.238	2671.77
169.482	2715.39
161.717	2735.74
153.945	2798.47
146.164	2900.88
138.375	2918.37
130.578	2975.54
122.771	3068.44
114.959	3109.96
107.137	3176.94
99.3066	3108.44
91.4668	3346.12
83.6211	3480.09
75.7637	3643.02
67.9004	3715.34
60.0273	2954.57
52.1465	720.397
44.2559	121.624
40.3086	56.9799