File: PeakFitting/xrdData/jacobson_raman/C3_02136_532nm_5sec_5per_50x.txt
#Wave		#Intensity
1818.91	1339.55
1812.64	1345.17
1806.37	1361.68
1800.1	1328.76
1793.82	1335.7
1787.53	1352.16
1781.24	1362.23
1774.95	1373.87
1768.65	1402.95
1762.35	1385.99
1756.04	1346.86
1749.72	1371.13
1743.4	1349.47
1737.08	1346.81
1730.75	1334.68
1724.42	1426.72
1718.08	1441.34
1711.73	1394.48
1705.38	1418.54
1699.03	1351.31
1692.67	1395.79
1686.3	1454.33
1679.93	1434.31
1673.56	1509.96
1667.18	1363.01
1660.79	1424.5
1654.4	1499.96
1648	1417.45
1641.6	1449.06
1635.19	1574.23
1628.78	1510.55
1622.36	1517.08
1615.94	1624.74
1609.51	1649.8
1603.07	1603.36
1596.63	1609.76
1590.19	1599.09
1583.74	1579.14
1577.28	1559.21
1570.82	1550.15
1564.35	1616.83
1557.88	1575.3
1551.4	1546.17
1544.92	1611.14
1538.43	1617.45
1531.93	1496.01
1525.43	1545.46
1518.92	1599.44
1512.41	1564.28
1505.89	1539.92
1499.37	1526.32
1492.84	1572.46
1486.31	1575.68
1479.77	1554.43
1473.22	1575.98
1466.67	1545.62
1460.11	1538.17
1453.55	1527.68
1446.98	1568.95
1440.4	1613.18
1433.82	1558.59
1427.24	1555.7
1420.64	1583.14
1414.05	1619.62
1407.44	1666.63
1400.83	1568.37
1394.22	1536.76
1387.6	1622.96
1380.97	1582.3
1374.33	1633.64
1367.7	1620.15
1361.05	1558.53
1354.4	1576.69
1347.74	1585.79
1341.08	1666.9
1334.41	1648.93
1327.74	1607.02
1321.05	1625.03
1314.37	1714.78
1307.68	1652
1300.98	1704.25
1294.27	1596.86
1287.56	1587.98
1280.85	1711.58
1274.12	1658
1267.39	1588.17
1260.66	1617.92
1253.92	1671.34
1247.17	1619.46
1240.42	1657.97
1233.66	1686.06
1226.89	1683.07
1220.12	1687.46
1213.35	1659.39
1206.56	1750.74
1199.77	1825.72
1192.98	1796.13
1186.18	1760.7
1179.37	1781.14
1172.55	1788.34
1165.73	1843.89
1158.91	1817.33
1152.07	1891.77
1145.24	1909.06
1138.39	1983.28
1131.54	1937.71
1124.68	1940.33
1117.82	2076.94
1110.95	2060.51
1104.07	2048.47
1097.19	2064.05
1090.3	2110.07
1083.41	2128.46
1076.51	2138.12
1069.6	2095.66
1062.69	2129.91
1055.77	2080.31
1048.84	2053.89
1041.91	2103.94
1034.97	2042.96
1028.03	2023.84
1021.07	2065.15
1014.12	2102.07
1007.15	2001.11
1000.18	2076.74
993.205	2092.05
986.223	2068.68
979.234	1972.4
972.238	1944.89
965.236	1943.12
958.229	1991.28
951.215	1953.84
944.193	1880.88
937.166	1923.26
930.133	1976.94
923.092	2014.9
916.045	1932.21
908.992	1865.25
901.934	1910.28
894.867	1908.55
887.795	1954.87
880.717	1885.3
873.631	1883.58
866.539	1850.85
859.441	1915.36
852.338	1922.06
845.227	1911.87
838.109	1842.71
830.984	1821.38
823.854	1884.21
816.717	1883.89
809.574	1905.96
802.424	1939.17
795.268	1916.44
788.104	1858.86
780.934	1942.21
773.758	1881.93
766.574	1935.87
759.385	1892.39
752.189	1862.87
744.986	1890.3
737.777	1938.49
730.561	1954.72
723.338	1975.07
716.109	1987.08
708.873	2110.97
701.631	2172.52
694.381	2100.19
687.125	2078.96
679.863	2134.85
672.594	2197.52
665.318	2326.01
658.035	2307.38
650.744	2424.56
643.449	2426.42
636.146	2535.05
628.836	2762.44
621.52	2888.31
614.195	3065.8
606.865	3217.05
599.529	3512.44
592.186	3789.57
584.834	4128.74
577.477	4673.78
570.111	4921.88
562.74	5195.28
555.361	5472.22
547.977	5400.76
540.584	5570.13
533.186	5556.79
525.779	5471.92
518.365	5108.06
510.945	4785.3
503.52	4538.5
496.084	4372.85
488.645	4286.76
481.195	4090.76
473.74	3970.22
466.277	3741.4
458.809	3495.6
451.332	3465.52
443.848	3317.95
436.355	3300.09
428.857	3239.59
421.354	3140.58
413.84	3003.17
406.32	2971.03
398.793	2923
391.258	3013.04
383.717	2913.36
376.168	2880.07
368.611	2783.34
361.047	2636.57
353.477	2630.03
345.896	2673.62
338.311	2597.21
330.717	2711.81
323.117	2668.37
315.508	2588.22
307.891	2517.4
300.268	2402.14
292.637	2360.45
284.998	2422.22
277.352	2453.78
269.697	2396.47
262.035	2455.38
254.365	2400.78
246.688	2381.42
239.002	2324.38
231.311	2266.15
223.609	2365.09
215.9	2449.56
208.184	2327.87
200.459	2410.89
192.727	2354.12
184.986	2312.94
177.238	2427.95
169.482	2376.45
161.717	2549.06
153.945	2527.11
146.164	2589.98
138.375	2609.08
130.578	2674.27
122.771	2766.21
114.959	2694.19
107.137	2881.73
99.3066	2934.82
91.4668	3055.37
83.6211	3139.98
75.7637	3298.19
67.9004	3430.62
60.0273	2628.26
52.1465	593.567
44.2559	115.289
40.3086	37.9866