File: PeakFitting/xrdData/jacobson_raman/C3_02125_532nm_5sec_10per_50x.txt
#Wave		#Intensity
1818.91	2556.17
1812.64	2623.32
1806.37	2686.68
1800.1	2612.92
1793.82	2567.91
1787.53	2612.05
1781.24	2676.78
1774.95	2596.86
1768.65	2748.76
1762.35	2784.66
1756.04	2752.35
1749.72	2702.67
1743.4	2801.77
1737.08	2796.37
1730.75	2768.86
1724.42	2791.89
1718.08	2775.44
1711.73	2667.63
1705.38	2651.3
1699.03	2712.06
1692.67	2738.15
1686.3	2756.32
1679.93	2914.13
1673.56	2816.09
1667.18	2780.86
1660.79	2842.74
1654.4	2887.31
1648	2839.59
1641.6	2788.82
1635.19	2908.19
1628.78	2936.93
1622.36	2786.5
1615.94	2860.41
1609.51	2971.51
1603.07	2784.12
1596.63	2756.93
1590.19	2906.59
1583.74	2902.57
1577.28	2777.78
1570.82	2793.98
1564.35	2987.9
1557.88	2833.99
1551.4	2853.16
1544.92	2892.34
1538.43	2917.58
1531.93	2984.32
1525.43	2898.71
1518.92	3020.65
1512.41	2912.11
1505.89	2911.12
1499.37	2871.81
1492.84	3008.65
1486.31	2883.65
1479.77	2842.92
1473.22	2864.87
1466.67	2892.88
1460.11	2841.57
1453.55	2869.54
1446.98	2908.11
1440.4	2964.85
1433.82	2972.87
1427.24	2904.99
1420.64	2972.19
1414.05	2990.78
1407.44	3007.81
1400.83	2921.97
1394.22	3067.47
1387.6	2942.46
1380.97	2816.17
1374.33	2979.44
1367.7	2997.88
1361.05	2965.12
1354.4	2930.92
1347.74	2937.32
1341.08	3011.22
1334.41	3020.53
1327.74	2975.9
1321.05	3073.5
1314.37	3114.11
1307.68	3082.94
1300.98	3084.66
1294.27	3034.19
1287.56	3092.55
1280.85	3091.27
1274.12	2999.27
1267.39	3051.55
1260.66	3216.54
1253.92	3124.67
1247.17	3201.88
1240.42	3209.36
1233.66	3307.05
1226.89	3290.77
1220.12	3333.58
1213.35	3411.7
1206.56	3557.47
1199.77	3577.82
1192.98	3639.32
1186.18	3735.98
1179.37	3784.01
1172.55	3890.62
1165.73	3989.71
1158.91	3953.89
1152.07	3975.19
1145.24	4293.19
1138.39	4277.63
1131.54	4294.19
1124.68	4310.72
1117.82	4421.88
1110.95	4580.86
1104.07	4522.92
1097.19	4691.68
1090.3	4716.46
1083.41	4764.39
1076.51	4739.79
1069.6	4561.83
1062.69	4631.44
1055.77	4585.35
1048.84	4698.11
1041.91	4542.43
1034.97	4424.5
1028.03	4361.47
1021.07	4462.5
1014.12	4393.79
1007.15	4306.55
1000.18	4312.68
993.205	4172.64
986.223	4148.81
979.234	4122.16
972.238	3926.93
965.236	3913.37
958.229	4038.19
951.215	3856.38
944.193	3814.43
937.166	3890.63
930.133	3794.71
923.092	3862.26
916.045	3899.88
908.992	3821.22
901.934	3728.53
894.867	3812.85
887.795	3875.81
880.717	3872.28
873.631	3741.77
866.539	3782.06
859.441	3650.45
852.338	3818.79
845.227	3742.2
838.109	3709.29
830.984	3616.1
823.854	3612.8
816.717	3790.18
809.574	3841.3
802.424	3737.12
795.268	3628.94
788.104	3694.01
780.934	3763.13
773.758	3737.39
766.574	3685.26
759.385	3655.46
752.189	3770.19
744.986	3754.24
737.777	3828.44
730.561	3957.92
723.338	3868.47
716.109	3925.76
708.873	4065.82
701.631	4088.3
694.381	4178.31
687.125	4157.92
679.863	4112.79
672.594	4232.76
665.318	4358
658.035	4539.27
650.744	4547.41
643.449	4610.34
636.146	4789.48
628.836	5125.56
621.52	5338.04
614.195	5700.26
606.865	5990.89
599.529	6353.18
592.186	6840.01
584.834	7461.91
577.477	7998.41
570.111	8539.31
562.74	9203.95
555.361	9550.3
547.977	9698.35
540.584	9762.26
533.186	9673.37
525.779	9483.4
518.365	8986.3
510.945	8416.03
503.52	7893.93
496.084	7480.37
488.645	7357.75
481.195	7193.73
473.74	6922.75
466.277	6546.44
458.809	6065.1
451.332	5904.22
443.848	5746.3
436.355	5662.06
428.857	5663.29
421.354	5491.36
413.84	5368.98
406.32	5386.4
398.793	5458.22
391.258	5364.04
383.717	5433.06
376.168	5313.9
368.611	5120.88
361.047	4899.14
353.477	4790.04
345.896	4876.36
338.311	4946.68
330.717	4965.51
323.117	4922.47
315.508	4753.38
307.891	4688.3
300.268	4602.35
292.637	4582.05
284.998	4646.83
277.352	4579.44
269.697	4632.31
262.035	4595.04
254.365	4582.59
246.688	4525.88
239.002	4473.17
231.311	4411.45
223.609	4490.04
215.9	4512.69
208.184	4537.86
200.459	4509.91
192.727	4357.89
184.986	4336.61
177.238	4564.33
169.482	4633.05
161.717	4961.66
153.945	5083.8
146.164	5260.9
138.375	5075.7
130.578	5174.19
122.771	5391.55
114.959	5508.64
107.137	5583.28
99.3066	5872.2
91.4668	6261.21
83.6211	6523.26
75.7637	6582.38
67.9004	6720.15
60.0273	5269.21
52.1465	1131.33
44.2559	152.03
40.3086	62.0448