File: PeakFitting/xrdData/jacobson_raman/C3_02160_532nm_5sec_1per_50x.txt
#Wave		#Intensity
1818.91	130.922
1812.64	157.974
1806.37	170.608
1800.1	151.358
1793.82	138.505
1787.53	152.714
1781.24	138.29
1774.95	147.711
1768.65	136.486
1762.35	139.55
1756.04	160.039
1749.72	139.329
1743.4	132.89
1737.08	113.815
1730.75	123.201
1724.42	116.789
1718.08	135.618
1711.73	129.206
1705.38	127.527
1699.03	103.826
1692.67	132.035
1686.3	125.644
1679.93	117.695
1673.56	148.958
1667.18	142.568
1660.79	117.404
1654.4	125.127
1648	142.214
1641.6	113.989
1635.19	138.857
1628.78	173.036
1622.36	147.969
1615.94	163.408
1609.51	172.6
1603.07	160.025
1596.63	189.384
1590.19	179.917
1583.74	178.214
1577.28	162.579
1570.82	176.364
1564.35	160.756
1557.88	155.985
1551.4	146.593
1544.92	164.968
1538.43	164.826
1531.93	183.153
1525.43	121.484
1518.92	162.863
1512.41	198.03
1505.89	174.851
1499.37	176.232
1492.84	173.016
1486.31	166.747
1479.77	146.731
1473.22	146.603
1466.67	164.784
1460.11	173.787
1453.55	162.973
1446.98	158.264
1440.4	180.932
1433.82	161.024
1427.24	174.542
1420.64	177.421
1414.05	177.265
1407.44	181.649
1400.83	149.728
1394.22	178.306
1387.6	143.424
1380.97	177.99
1374.33	177.832
1367.7	146.054
1361.05	177.516
1354.4	147.298
1347.74	180.204
1341.08	148.536
1334.41	166.392
1327.74	158.755
1321.05	139.16
1314.37	158.471
1307.68	180.735
1300.98	167.142
1294.27	138.663
1287.56	150.456
1280.85	154.786
1274.12	157.622
1267.39	123.31
1260.66	123.199
1253.92	126.055
1247.17	142.24
1240.42	143.592
1233.66	155.295
1226.89	138.901
1220.12	147.634
1213.35	147.501
1206.56	119.368
1199.77	138.401
1192.98	130.922
1186.18	144.031
1179.37	104.255
1172.55	137.903
1165.73	131.915
1158.91	95.1863
1152.07	146.308
1145.24	122.788
1138.39	146.044
1131.54	116.73
1124.68	107.877
1117.82	135.453
1110.95	130.965
1104.07	113.4
1097.19	123.465
1090.3	117.549
1083.41	111.643
1076.51	128.925
1069.6	134.597
1062.69	124.353
1055.77	108.349
1048.84	124.128
1041.91	100.943
1034.97	126.785
1028.03	105.078
1021.07	89.1637
1014.12	125.003
1007.15	114.841
1000.18	111.869
993.205	103.17
986.223	127.413
979.234	121.576
972.238	107.176
965.236	112.789
958.229	118.393
951.215	105.459
944.193	125.297
937.166	145.098
930.133	126.49
923.092	120.695
916.045	136.191
908.992	119.059
901.934	110.454
894.867	113.183
887.795	103.185
880.717	111.565
873.631	110.052
866.539	98.6747
859.441	115.485
852.338	116.787
845.227	111.057
838.109	105.338
830.984	94.0158
823.854	114.959
816.717	131.662
809.574	125.944
802.424	111.848
795.268	96.3807
788.104	107.457
780.934	118.513
773.758	97.5093
766.574	118.296
759.385	125.139
752.189	80.5715
744.986	129.074
737.777	122.022
730.561	108.057
723.338	98.2688
716.109	116.155
708.873	109.14
701.631	120.082
694.381	96.5286
687.125	77.1517
679.863	89.4684
672.594	115.514
665.318	103.042
658.035	100.202
650.744	120.679
643.449	126.048
636.146	101.292
628.836	124.447
621.52	105.203
614.195	92.8204
606.865	95.4615
599.529	100.822
592.186	99.3673
584.834	122.393
577.477	84.2367
570.111	86.8727
562.74	117.982
555.361	98.9036
547.977	120.468
540.584	104.127
533.186	133.752
525.779	117.429
518.365	105.182
510.945	115.86
503.52	90.1779
496.084	92.7818
488.645	92.6939
481.195	91.2638
473.74	105.926
466.277	96.4484
458.809	103.048
451.332	80.2204
443.848	86.8223
436.355	94.7458
428.857	126.651
421.354	75.9174
413.84	105.118
406.32	91.7229
398.793	106.243
391.258	92.8723
383.717	103.386
376.168	109.906
368.611	103.185
361.047	89.8682
353.477	79.2179
345.896	87.0543
338.311	117.276
330.717	73.7191
323.117	107.839
315.508	89.3394
307.891	192.939
300.268	89.1623
292.637	47.1566
284.998	109.922
277.352	84.9739
269.697	95.3365
262.035	93.936
254.365	130.335
246.688	98.9548
239.002	87.1481
231.311	88.359
223.609	88.2691
215.9	90.7724
208.184	86.7933
200.459	89.2923
192.727	113.763
184.986	92.9826
177.238	96.7566
169.482	92.7899
161.717	100.418
153.945	105.457
146.164	64.2356
138.375	103.952
130.578	99.9967
122.771	75.5585
114.959	80.5955
107.137	106.068
99.3066	79.147
91.4668	103.291
83.6211	95.5369
75.7637	97.9786
67.9004	127.107
60.0273	87.6086
52.1465	58.342
44.2559	62.0789
40.3086	39.2528