File: PeakFitting/xrdData/jacobson_raman/C3_02125_532nm_5sec_1per_50x.txt
#Wave		#Intensity
1818.91	314.532
1812.64	327.117
1806.37	352.378
1800.1	328.208
1793.82	331.138
1787.53	343.607
1781.24	330.623
1774.95	339.895
1768.65	326.932
1762.35	366.319
1756.04	318.493
1749.72	302.408
1743.4	344.882
1737.08	341.445
1730.75	330.115
1724.42	320.38
1718.08	370.585
1711.73	337.196
1705.38	340.071
1699.03	338.222
1692.67	314.368
1686.3	303.117
1679.93	373.485
1673.56	324.571
1667.18	314.903
1660.79	347.516
1654.4	370.689
1648	351.628
1641.6	337.282
1635.19	335.44
1628.78	389.72
1622.36	347.339
1615.94	337.709
1609.51	340.535
1603.07	365.105
1596.63	333.75
1590.19	317.957
1583.74	313.038
1577.28	323.61
1570.82	331.069
1564.35	343.152
1557.88	336.681
1551.4	305.53
1544.92	345.354
1538.43	357.38
1531.93	352.455
1525.43	365.99
1518.92	356.455
1512.41	340.796
1505.89	305.223
1499.37	347.867
1492.84	335.315
1486.31	354.91
1479.77	327.089
1473.22	343.601
1466.67	300.579
1460.11	295.742
1453.55	353.361
1446.98	340.877
1440.4	337.537
1433.82	323.568
1427.24	365.78
1420.64	345.744
1414.05	315.137
1407.44	339.079
1400.83	322.143
1394.22	350.568
1387.6	333.65
1380.97	289.611
1374.33	316.481
1367.7	320.717
1361.05	321.936
1354.4	296.098
1347.74	294.333
1341.08	291.07
1334.41	299.805
1327.74	311.519
1321.05	282.81
1314.37	333.387
1307.68	325.621
1300.98	325.33
1294.27	301.182
1287.56	341.134
1280.85	346.781
1274.12	310.782
1267.39	304.561
1260.66	357.723
1253.92	349.987
1247.17	364.489
1240.42	381.926
1233.66	374.187
1226.89	394.538
1220.12	392.707
1213.35	417.428
1206.56	464.21
1199.77	493.239
1192.98	478.084
1186.18	477.653
1179.37	464.007
1172.55	579.485
1165.73	507.142
1158.91	557.938
1152.07	589.622
1145.24	540.851
1138.39	578.334
1131.54	621.585
1124.68	607.903
1117.82	630.657
1110.95	621.356
1104.07	596.078
1097.19	637.662
1090.3	603.707
1083.41	640.858
1076.51	599.717
1069.6	577.465
1062.69	527.779
1055.77	544.637
1048.84	571.567
1041.91	527.788
1034.97	484.087
1028.03	505.24
1021.07	465.952
1014.12	469.84
1007.15	453.623
1000.18	454.646
993.205	406.947
986.223	439.505
979.234	420.512
972.238	397.266
965.236	406.899
958.229	405.103
951.215	384.783
944.193	397.248
937.166	375.549
930.133	332.57
923.092	401.845
916.045	366.013
908.992	384.106
901.934	379.508
894.867	377.748
887.795	367.509
880.717	340.343
873.631	358.375
866.539	336.904
859.441	352.088
852.338	325.033
845.227	344.418
838.109	335.676
830.984	342.386
823.854	339.269
816.717	345.963
809.574	323.257
802.424	327.156
795.268	311.491
788.104	315.393
780.934	315.104
773.758	327.353
766.574	308.961
759.385	318.41
752.189	298.67
744.986	334.481
737.777	311.988
730.561	344.95
723.338	326.64
716.109	342.933
708.873	342.618
701.631	327.12
694.381	337.85
687.125	337.539
679.863	355.121
672.594	331.415
665.318	342.1
658.035	356.883
650.744	368.895
643.449	378.143
636.146	399.694
628.836	474.538
621.52	516.452
614.195	607.427
606.865	703.688
599.529	765.706
592.186	830.33
584.834	920.67
577.477	1116.82
570.111	1121.2
562.74	1173.04
555.361	1188.2
547.977	1180.32
540.584	1098.07
533.186	1048.4
525.779	1025.82
518.365	930.455
510.945	833.924
503.52	737.574
496.084	654.852
488.645	591.091
481.195	593.215
473.74	540.358
466.277	503.675
458.809	464.385
451.332	470.626
443.848	411.404
436.355	392.327
428.857	433.279
421.354	404.893
413.84	423.131
406.32	393.478
398.793	393.098
391.258	411.292
383.717	410.893
376.168	341.636
368.611	329.398
361.047	348.9
353.477	344.598
345.896	313.923
338.311	333.381
330.717	348.849
323.117	335.354
315.508	320.571
307.891	396.379
300.268	270.109
292.637	311.757
284.998	295.743
277.352	273.224
269.697	304.293
262.035	297.464
254.365	289.344
246.688	278.636
239.002	260.144
231.311	244.287
223.609	266.105
215.9	273.614
208.184	268.152
200.459	254.936
192.727	266.309
184.986	287.988
177.238	260.598
169.482	282.236
161.717	287.091
153.945	294.508
146.164	296.769
138.375	287.473
130.578	238.454
122.771	293.269
114.959	292.958
107.137	323.316
99.3066	299.993
91.4668	336.652
83.6211	314.635
75.7637	332.109
67.9004	345.731
60.0273	305.995
52.1465	88.7813
44.2559	59.5451
40.3086	32.9217