File: PeakFitting/xrdData/jacobson_raman/C3_02126_532nm_5sec_5per_50x.txt
#Wave		#Intensity
1818.91	1925.51
1812.64	1930.79
1806.37	2058.46
1800.1	2020.23
1793.82	1996.38
1787.53	1931.2
1781.24	2020.3
1774.95	1994.9
1768.65	2021.9
1762.35	2074.22
1756.04	2009.2
1749.72	1964.86
1743.4	2093.02
1737.08	1952.24
1730.75	1993.33
1724.42	2054.85
1718.08	2067.39
1711.73	2037.36
1705.38	2092.38
1699.03	2082.82
1692.67	2121.98
1686.3	2126.53
1679.93	2131.06
1673.56	2124.61
1667.18	2108.76
1660.79	2193.11
1654.4	2186.6
1648	2103.52
1641.6	2148.61
1635.19	2257.59
1628.78	2126.31
1622.36	2185.27
1615.94	2290.82
1609.51	2259.35
1603.07	2238.79
1596.63	2153.07
1590.19	2213.29
1583.74	2243.95
1577.28	2138.3
1570.82	2292.73
1564.35	2247.49
1557.88	2268.73
1551.4	2222.04
1544.92	2324.97
1538.43	2272.14
1531.93	2230.16
1525.43	2208.24
1518.92	2341.54
1512.41	2298.07
1505.89	2214.78
1499.37	2278.76
1492.84	2324.24
1486.31	2244.2
1479.77	2268.22
1473.22	2241.81
1466.67	2226.11
1460.11	2240.93
1453.55	2322.74
1446.98	2195.92
1440.4	2390.12
1433.82	2263.46
1427.24	2246.28
1420.64	2288.28
1414.05	2255.96
1407.44	2285.76
1400.83	2297.35
1394.22	2289.27
1387.6	2334.04
1380.97	2160.02
1374.33	2280.17
1367.7	2321.81
1361.05	2295.68
1354.4	2260.57
1347.74	2257.05
1341.08	2391.57
1334.41	2404.43
1327.74	2225.56
1321.05	2353.76
1314.37	2427.9
1307.68	2295.78
1300.98	2357.89
1294.27	2369.2
1287.56	2370.06
1280.85	2428.96
1274.12	2432.73
1267.39	2417.17
1260.66	2450.63
1253.92	2343.14
1247.17	2389.92
1240.42	2451.43
1233.66	2503.95
1226.89	2619.91
1220.12	2511.26
1213.35	2584.22
1206.56	2676.21
1199.77	2716.5
1192.98	2653.74
1186.18	2689.55
1179.37	2748.8
1172.55	2890.09
1165.73	2897.74
1158.91	2864.38
1152.07	2939.33
1145.24	3059.46
1138.39	3109.28
1131.54	3185.26
1124.68	3151.77
1117.82	3230.48
1110.95	3314.87
1104.07	3316.23
1097.19	3372.78
1090.3	3384.24
1083.41	3384.08
1076.51	3389.71
1069.6	3301.25
1062.69	3363.33
1055.77	3393.51
1048.84	3244.65
1041.91	3323.91
1034.97	3207.08
1028.03	3302.05
1021.07	3346.51
1014.12	3316.18
1007.15	3227.04
1000.18	3205.47
993.205	3166.74
986.223	3176.75
979.234	3135.24
972.238	3066.66
965.236	3028.18
958.229	3101.03
951.215	3059.74
944.193	2894.64
937.166	2923.3
930.133	2959.02
923.092	3081.28
916.045	2956.48
908.992	2922.61
901.934	2846.31
894.867	2915.87
887.795	3084.25
880.717	3006.6
873.631	2882.52
866.539	2906.67
859.441	2963.18
852.338	2891.53
845.227	2933.87
838.109	2859.57
830.984	2820.47
823.854	2862.76
816.717	3040.83
809.574	2888.32
802.424	2955.58
795.268	2891.42
788.104	2906.92
780.934	2884.74
773.758	2942
766.574	2826.57
759.385	2853.18
752.189	2946.42
744.986	2904.85
737.777	3002.02
730.561	3058.83
723.338	3061.56
716.109	3123.74
708.873	3221.71
701.631	3242.21
694.381	3257.15
687.125	3320.28
679.863	3328.22
672.594	3311.4
665.318	3453.97
658.035	3656.67
650.744	3675.23
643.449	3867.75
636.146	3924.39
628.836	4318.71
621.52	4695.89
614.195	5072.36
606.865	5285.84
599.529	5750.97
592.186	6147.16
584.834	6893.46
577.477	7619.34
570.111	8100.88
562.74	8573.36
555.361	8904.04
547.977	8913.28
540.584	9030.67
533.186	9014.07
525.779	8897.6
518.365	8165.08
510.945	7804.4
503.52	7222.31
496.084	6937.12
488.645	6640.38
481.195	6450.2
473.74	6131.65
466.277	5765.47
458.809	5256.78
451.332	5257.11
443.848	4980.93
436.355	5004.18
428.857	4780.73
421.354	4776.14
413.84	4586.58
406.32	4487.78
398.793	4448.91
391.258	4493.69
383.717	4506.56
376.168	4392.28
368.611	4237.19
361.047	4017.64
353.477	3921.29
345.896	3926.68
338.311	3936
330.717	3976.88
323.117	3937.45
315.508	3823.2
307.891	3759.04
300.268	3626.81
292.637	3573.42
284.998	3616.97
277.352	3619.89
269.697	3612.34
262.035	3576.09
254.365	3444.76
246.688	3455.6
239.002	3450.8
231.311	3470.69
223.609	3481.44
215.9	3505.11
208.184	3453.59
200.459	3478.52
192.727	3463.3
184.986	3449.4
177.238	3558.06
169.482	3626.54
161.717	3742.49
153.945	3818.31
146.164	3840.01
138.375	3878.32
130.578	3961.41
122.771	4092.96
114.959	4112.93
107.137	4186.5
99.3066	4407.98
91.4668	4510.37
83.6211	4765.38
75.7637	4980.37
67.9004	5169.45
60.0273	3870.01
52.1465	861.179
44.2559	168.5
40.3086	72.1746