File: PeakFitting/xrdData/jacobson_raman/C3_02156_532nm_5sec_5per_50x.txt
#Wave		#Intensity
1818.91	1358.71
1812.64	1385.06
1806.37	1438.21
1800.1	1346.29
1793.82	1412.11
1787.53	1412.61
1781.24	1389.25
1774.95	1375.46
1768.65	1444.21
1762.35	1430.39
1756.04	1365.88
1749.72	1467.71
1743.4	1422.24
1737.08	1387.91
1730.75	1380.48
1724.42	1448.81
1718.08	1496.53
1711.73	1454.35
1705.38	1440.58
1699.03	1470.87
1692.67	1471.24
1686.3	1411.93
1679.93	1562.99
1673.56	1486.44
1667.18	1463.28
1660.79	1519.99
1654.4	1528.12
1648	1525.28
1641.6	1594.28
1635.19	1536.78
1628.78	1558.88
1622.36	1503.06
1615.94	1540.7
1609.51	1624.92
1603.07	1548.98
1596.63	1645.46
1590.19	1589.78
1583.74	1566.74
1577.28	1562.31
1570.82	1577.99
1564.35	1602.92
1557.88	1583.02
1551.4	1521.48
1544.92	1588.01
1538.43	1648.26
1531.93	1611.44
1525.43	1525.47
1518.92	1565.64
1512.41	1637.97
1505.89	1581.33
1499.37	1581.49
1492.84	1589.3
1486.31	1528.26
1479.77	1534.56
1473.22	1542.39
1466.67	1595.97
1460.11	1562.56
1453.55	1532.25
1446.98	1594.82
1440.4	1661.84
1433.82	1564.67
1427.24	1607.31
1420.64	1628.64
1414.05	1601.44
1407.44	1619.71
1400.83	1616.76
1394.22	1647.06
1387.6	1589.75
1380.97	1479.73
1374.33	1609.53
1367.7	1593.05
1361.05	1629.24
1354.4	1570.67
1347.74	1659.38
1341.08	1618.89
1334.41	1699.89
1327.74	1623.49
1321.05	1642.99
1314.37	1647.5
1307.68	1610.18
1300.98	1598.29
1294.27	1711.67
1287.56	1668.43
1280.85	1704.14
1274.12	1614.88
1267.39	1644.63
1260.66	1687.68
1253.92	1696.55
1247.17	1669.84
1240.42	1730.51
1233.66	1717.12
1226.89	1795.37
1220.12	1774.56
1213.35	1808.36
1206.56	1849.47
1199.77	1869.89
1192.98	1891.74
1186.18	1831.25
1179.37	1910.36
1172.55	1986.39
1165.73	1942.09
1158.91	1959.37
1152.07	2030.76
1145.24	2088.86
1138.39	2138.08
1131.54	2169.71
1124.68	2192.53
1117.82	2269.2
1110.95	2284.61
1104.07	2206.94
1097.19	2223.83
1090.3	2287.12
1083.41	2232.85
1076.51	2388.73
1069.6	2214.34
1062.69	2264.39
1055.77	2263.78
1048.84	2306.47
1041.91	2214.98
1034.97	2179.83
1028.03	2235.43
1021.07	2214.71
1014.12	2238.56
1007.15	2189.16
1000.18	2215.86
993.205	2109.25
986.223	2097.31
979.234	2088.25
972.238	2122.08
965.236	2084.46
958.229	2058.32
951.215	2086.38
944.193	2122.93
937.166	1955.98
930.133	2076.43
923.092	2047.56
916.045	2061.31
908.992	1988.56
901.934	1951.35
894.867	2007.58
887.795	2043.92
880.717	2071.71
873.631	2021.85
866.539	1984.77
859.441	1992.82
852.338	1961.45
845.227	2039.8
838.109	1907.32
830.984	1857.86
823.854	1951.5
816.717	2002.94
809.574	1961.93
802.424	1971.32
795.268	1915.04
788.104	1946.78
780.934	1918.51
773.758	1911.18
766.574	1921.96
759.385	1903.51
752.189	1918.43
744.986	1977.74
737.777	2036.94
730.561	2008.75
723.338	2005.51
716.109	1993.99
708.873	2123.4
701.631	2113.16
694.381	2104.32
687.125	2132.69
679.863	2189.91
672.594	2185.14
665.318	2330.13
658.035	2377.39
650.744	2460.21
643.449	2482.59
636.146	2652.76
628.836	2839.02
621.52	3042.7
614.195	3367.47
606.865	3496.62
599.529	3784.93
592.186	4132.59
584.834	4610.15
577.477	5044.69
570.111	5344.03
562.74	5733.65
555.361	5939.64
547.977	5901.58
540.584	5929.84
533.186	5985.06
525.779	5839.05
518.365	5415.52
510.945	5062.82
503.52	4752.51
496.084	4464.29
488.645	4266.61
481.195	4182.03
473.74	3927.32
466.277	3782.92
458.809	3451.44
451.332	3453.49
443.848	3233.8
436.355	3281.41
428.857	3190.27
421.354	3024.71
413.84	2979.22
406.32	2851.39
398.793	2905.74
391.258	2932.11
383.717	2929.27
376.168	2881.4
368.611	2778.05
361.047	2533.49
353.477	2593.07
345.896	2587.89
338.311	2610.38
330.717	2613.08
323.117	2490.83
315.508	2427.93
307.891	2450.46
300.268	2339.2
292.637	2346.04
284.998	2394.74
277.352	2371.42
269.697	2365.13
262.035	2301.43
254.365	2351.25
246.688	2213.46
239.002	2189.11
231.311	2188.18
223.609	2223.6
215.9	2291.36
208.184	2228.13
200.459	2281.48
192.727	2280.43
184.986	2229
177.238	2273.13
169.482	2287.53
161.717	2366.25
153.945	2417.79
146.164	2444.81
138.375	2474.32
130.578	2585.81
122.771	2620.21
114.959	2607.2
107.137	2663.21
99.3066	2796.95
91.4668	2913.82
83.6211	2966.74
75.7637	3177.31
67.9004	3168.78
60.0273	2517.79
52.1465	558.054
44.2559	97.5525
40.3086	65.8435