File: PeakFitting/xrdData/jacobson_raman/C3_02159_532nm_5sec_5per_50x.txt
#Wave		#Intensity
1818.91	2316.68
1812.64	2396.73
1806.37	2370.98
1800.1	2322.95
1793.82	2375.28
1787.53	2476.84
1781.24	2397.02
1774.95	2376.09
1768.65	2451.99
1762.35	2408.82
1756.04	2335.62
1749.72	2359.1
1743.4	2577.12
1737.08	2445.44
1730.75	2310.81
1724.42	2373.66
1718.08	2502.63
1711.73	2384.01
1705.38	2430.88
1699.03	2443.06
1692.67	2409.63
1686.3	2347.98
1679.93	2448.06
1673.56	2417.82
1667.18	2393.89
1660.79	2431.05
1654.4	2485.34
1648	2456.71
1641.6	2378.15
1635.19	2368.36
1628.78	2573.71
1622.36	2460.96
1615.94	2416.88
1609.51	2467.71
1603.07	2439.21
1596.63	2472.85
1590.19	2455.25
1583.74	2460.91
1577.28	2429.4
1570.82	2401.02
1564.35	2479.35
1557.88	2472.6
1551.4	2348.57
1544.92	2465.27
1538.43	2480.09
1531.93	2414.85
1525.43	2425.07
1518.92	2419.9
1512.41	2373.29
1505.89	2401.91
1499.37	2369.17
1492.84	2465.1
1486.31	2389.52
1479.77	2346.17
1473.22	2362.45
1466.67	2383.27
1460.11	2407.1
1453.55	2362.34
1446.98	2361.79
1440.4	2435.74
1433.82	2375.87
1427.24	2399.58
1420.64	2414.14
1414.05	2436.25
1407.44	2331.17
1400.83	2309.45
1394.22	2352.73
1387.6	2392.92
1380.97	2386.27
1374.33	2396.21
1367.7	2369.99
1361.05	2342.31
1354.4	2283.11
1347.74	2303.61
1341.08	2399.08
1334.41	2381.95
1327.74	2280.97
1321.05	2295.4
1314.37	2448.83
1307.68	2376.44
1300.98	2345.96
1294.27	2357.27
1287.56	2371.55
1280.85	2339.66
1274.12	2353.92
1267.39	2328.03
1260.66	2394.22
1253.92	2366.86
1247.17	2462.53
1240.42	2461.79
1233.66	2444.79
1226.89	2467.71
1220.12	2484.68
1213.35	2433.77
1206.56	2584.84
1199.77	2553.06
1192.98	2574.3
1186.18	2573.45
1179.37	2585.81
1172.55	2624.56
1165.73	2664.69
1158.91	2684.25
1152.07	2697.92
1145.24	2894.29
1138.39	2935.48
1131.54	2833.61
1124.68	2864.58
1117.82	2972.68
1110.95	2952.53
1104.07	3031.28
1097.19	3075.01
1090.3	3107.06
1083.41	3057.85
1076.51	3044.94
1069.6	3029.16
1062.69	3014.85
1055.77	2993.33
1048.84	3044.03
1041.91	2907.16
1034.97	2880.03
1028.03	2877.42
1021.07	2905.01
1014.12	2905.25
1007.15	2876.77
1000.18	2842.61
993.205	2772.68
986.223	2787.35
979.234	2824.87
972.238	2685.11
965.236	2684.1
958.229	2674.53
951.215	2706.31
944.193	2565.74
937.166	2621.73
930.133	2575.29
923.092	2729.14
916.045	2685.51
908.992	2605.12
901.934	2606.99
894.867	2608.87
887.795	2671.51
880.717	2619.65
873.631	2514.27
866.539	2544.4
859.441	2527.99
852.338	2674.84
845.227	2554.31
838.109	2471.93
830.984	2511.77
823.854	2453.4
816.717	2501.58
809.574	2570.66
802.424	2491.42
795.268	2472.38
788.104	2439.41
780.934	2566.85
773.758	2526.88
766.574	2477.25
759.385	2512.52
752.189	2514.39
744.986	2498.2
737.777	2640.11
730.561	2637.69
723.338	2574.37
716.109	2569.23
708.873	2769.95
701.631	2862.64
694.381	2727.62
687.125	2744.39
679.863	2783.16
672.594	2783.34
665.318	2940.14
658.035	2905.85
650.744	3055.38
643.449	3001.86
636.146	3197.55
628.836	3340.91
621.52	3564.61
614.195	3811.1
606.865	3890.74
599.529	4114.65
592.186	4470.17
584.834	4946.05
577.477	5503.91
570.111	5781.1
562.74	6168.97
555.361	6504.61
547.977	6585.13
540.584	6572.19
533.186	6575.46
525.779	6427.55
518.365	6281.24
510.945	5809.18
503.52	5364.91
496.084	5162.17
488.645	5043.08
481.195	4712.16
473.74	4588.35
466.277	4267.84
458.809	3961.32
451.332	4029.74
443.848	3826.86
436.355	3851.21
428.857	3676.87
421.354	3609.41
413.84	3468.88
406.32	3401.72
398.793	3355.94
391.258	3469.44
383.717	3436.92
376.168	3339.56
368.611	3270.16
361.047	3109.7
353.477	3067.05
345.896	3061.41
338.311	3071.58
330.717	3121.22
323.117	3108.93
315.508	2992.87
307.891	2912.47
300.268	2808.61
292.637	2839.87
284.998	2882.84
277.352	2921.79
269.697	2870.54
262.035	2904.19
254.365	2842.61
246.688	2782.45
239.002	2753.62
231.311	2736.53
223.609	2788.26
215.9	2835.99
208.184	2782.57
200.459	2749.95
192.727	2704.45
184.986	2704.24
177.238	2733.7
169.482	2808.18
161.717	2945.58
153.945	3055.68
146.164	3039.63
138.375	3049.27
130.578	3065.28
122.771	3167.05
114.959	3180.32
107.137	3360.96
99.3066	3404.6
91.4668	3541.22
83.6211	3750.14
75.7637	3869.52
67.9004	3916.17
60.0273	3081.54
52.1465	672.201
44.2559	84.8834
40.3086	59.5124