File: PeakFitting/xrdData/jacobson_raman/C3_02157_532nm_5sec_5per_50x.txt
#Wave		#Intensity
1818.91	552.426
1812.64	560.088
1806.37	583.576
1800.1	528.956
1793.82	546.059
1787.53	594.95
1781.24	540.442
1774.95	565.432
1768.65	561.814
1762.35	612.117
1756.04	592.619
1749.72	549.4
1743.4	594.842
1737.08	580.14
1730.75	555.983
1724.42	624.979
1718.08	591.359
1711.73	603.486
1705.38	617.166
1699.03	597.787
1692.67	586.297
1686.3	570.111
1679.93	608.875
1673.56	592.695
1667.18	562.439
1660.79	629.286
1654.4	572.457
1648	603.237
1641.6	579.313
1635.19	650.597
1628.78	567.432
1622.36	587.205
1615.94	602.274
1609.51	606.431
1603.07	568.632
1596.63	560.389
1590.19	606.444
1583.74	647.771
1577.28	572.898
1570.82	600.256
1564.35	570.374
1557.88	586.875
1551.4	618.776
1544.92	590.493
1538.43	582.283
1531.93	591.016
1525.43	578.203
1518.92	576.167
1512.41	594.089
1505.89	559.831
1499.37	594.591
1492.84	632.352
1486.31	587.438
1479.77	579.283
1473.22	555.87
1466.67	576.745
1460.11	548.8
1453.55	526.996
1446.98	582.839
1440.4	547.357
1433.82	598.524
1427.24	581.302
1420.64	576.24
1414.05	583.307
1407.44	607.012
1400.83	571.69
1394.22	589.317
1387.6	566.149
1380.97	555.088
1374.33	575.694
1367.7	572.171
1361.05	564.141
1354.4	557.627
1347.74	542.113
1341.08	601.645
1334.41	575.625
1327.74	587.093
1321.05	565.62
1314.37	593.519
1307.68	601.951
1300.98	552.165
1294.27	553.162
1287.56	567.563
1280.85	593.844
1274.12	600.747
1267.39	545.238
1260.66	610.06
1253.92	567.988
1247.17	604.519
1240.42	606.936
1233.66	581.248
1226.89	613.233
1220.12	581.678
1213.35	595.905
1206.56	645.473
1199.77	671.394
1192.98	616.361
1186.18	617.275
1179.37	660.769
1172.55	704.185
1165.73	738.727
1158.91	685.341
1152.07	740.32
1145.24	744.036
1138.39	741.903
1131.54	728.101
1124.68	762.43
1117.82	808.348
1110.95	813.438
1104.07	786.532
1097.19	829.397
1090.3	824.292
1083.41	820.646
1076.51	837.286
1069.6	769.953
1062.69	760.58
1055.77	790.229
1048.84	805.39
1041.91	718.137
1034.97	752.064
1028.03	758.579
1021.07	703.243
1014.12	719.847
1007.15	693.354
1000.18	724.278
993.205	709.291
986.223	725.827
979.234	682.259
972.238	643.056
965.236	686.731
958.229	676.122
951.215	664.107
944.193	590.888
937.166	627.337
930.133	636.715
923.092	623.357
916.045	590.161
908.992	610.884
901.934	618.825
894.867	578.647
887.795	593.669
880.717	563.472
873.631	572.835
866.539	583.59
859.441	568.975
852.338	551.571
845.227	542.633
838.109	560.397
830.984	536.031
823.854	590.217
816.717	557.462
809.574	569.548
802.424	570.425
795.268	567.11
788.104	548.449
780.934	547.947
773.758	579.484
766.574	524.676
759.385	563.128
752.189	547.33
744.986	553.768
737.777	553.259
730.561	531.971
723.338	543.939
716.109	598.75
708.873	567.806
701.631	575.565
694.381	623.299
687.125	567.616
679.863	615.267
672.594	587.196
665.318	594.897
658.035	609.446
650.744	606.139
643.449	698.743
636.146	674.826
628.836	786.339
621.52	785.608
614.195	896.809
606.865	1028.26
599.529	1145.83
592.186	1240.05
584.834	1393.92
577.477	1603.21
570.111	1675.01
562.74	1754.81
555.361	1781.62
547.977	1698.73
540.584	1691.73
533.186	1623.94
525.779	1490.13
518.365	1353.88
510.945	1336.43
503.52	1166.93
496.084	1054.22
488.645	1023.66
481.195	971.691
473.74	938.587
466.277	846.603
458.809	812.339
451.332	807.552
443.848	765.372
436.355	743.287
428.857	803.899
421.354	723.213
413.84	739.815
406.32	709.856
398.793	694.561
391.258	735.018
383.717	726.352
376.168	681.948
368.611	661.441
361.047	635.685
353.477	636.384
345.896	660.821
338.311	682.574
330.717	631.878
323.117	666.763
315.508	610.924
307.891	657.569
300.268	614.958
292.637	597.317
284.998	588.869
277.352	583.051
269.697	587.691
262.035	567.53
254.365	577.385
246.688	565.084
239.002	571.015
231.311	518.459
223.609	558.172
215.9	519.996
208.184	522.055
200.459	493.049
192.727	535.203
184.986	530.776
177.238	565.058
169.482	556.739
161.717	558.734
153.945	586.444
146.164	569.128
138.375	567.246
130.578	589.724
122.771	582.697
114.959	607.664
107.137	667.08
99.3066	677.856
91.4668	712.835
83.6211	694.234
75.7637	706.21
67.9004	742.306
60.0273	609.451
52.1465	183.904
44.2559	53.2105
40.3086	45.5839