File: PeakFitting/xrdData/jacobson_raman/C3_02124_532nm_5sec_5per_50x.txt
#Wave		#Intensity
1818.91	2342.22
1812.64	2328.12
1806.37	2369.38
1800.1	2413.76
1793.82	2311.6
1787.53	2392.52
1781.24	2446.29
1774.95	2425.32
1768.65	2459.92
1762.35	2510.32
1756.04	2440.2
1749.72	2433.51
1743.4	2498.02
1737.08	2475.48
1730.75	2452.96
1724.42	2477.82
1718.08	2587.79
1711.73	2502.18
1705.38	2523.77
1699.03	2515.42
1692.67	2579.39
1686.3	2527.02
1679.93	2534.37
1673.56	2605.98
1667.18	2570.93
1660.79	2567.24
1654.4	2624.54
1648	2628.61
1641.6	2556.16
1635.19	2607.07
1628.78	2718.69
1622.36	2666.56
1615.94	2598.96
1609.51	2727.39
1603.07	2610.11
1596.63	2654.48
1590.19	2652.23
1583.74	2784.8
1577.28	2585.78
1570.82	2594.41
1564.35	2692.66
1557.88	2758.31
1551.4	2570.78
1544.92	2705.78
1538.43	2729.64
1531.93	2714.98
1525.43	2726.47
1518.92	2664.2
1512.41	2709.48
1505.89	2653.45
1499.37	2595.97
1492.84	2679.46
1486.31	2674.06
1479.77	2622.82
1473.22	2605.26
1466.67	2685.37
1460.11	2783.64
1453.55	2676.1
1446.98	2623.54
1440.4	2723.1
1433.82	2658.42
1427.24	2663.67
1420.64	2762.92
1414.05	2674.12
1407.44	2745.93
1400.83	2651.25
1394.22	2694.23
1387.6	2746.2
1380.97	2601.97
1374.33	2676.52
1367.7	2666.62
1361.05	2670.27
1354.4	2708.47
1347.74	2650.5
1341.08	2730.66
1334.41	2714.73
1327.74	2763.23
1321.05	2702.4
1314.37	2768.76
1307.68	2926.11
1300.98	2801.12
1294.27	2716.61
1287.56	2769.29
1280.85	2906.71
1274.12	2846.11
1267.39	2720.25
1260.66	2852.88
1253.92	2971.93
1247.17	2958.88
1240.42	2991.75
1233.66	3002.37
1226.89	3236.1
1220.12	3245
1213.35	3245.03
1206.56	3418.95
1199.77	3573.41
1192.98	3617.26
1186.18	3619.88
1179.37	3732.61
1172.55	4013.85
1165.73	4083.52
1158.91	4065.19
1152.07	4197.58
1145.24	4354.58
1138.39	4480.63
1131.54	4546.62
1124.68	4491.48
1117.82	4834.07
1110.95	4867.53
1104.07	4915.46
1097.19	4880.51
1090.3	4778.86
1083.41	4923.88
1076.51	4986.06
1069.6	4673.27
1062.69	4616.98
1055.77	4679.25
1048.84	4602.85
1041.91	4441.49
1034.97	4273.22
1028.03	4180.1
1021.07	4193.57
1014.12	4145.22
1007.15	4058.2
1000.18	4031.57
993.205	3810.11
986.223	3878.23
979.234	3853.26
972.238	3621.12
965.236	3613.55
958.229	3544.65
951.215	3458.77
944.193	3528.24
937.166	3473.82
930.133	3464.98
923.092	3538.51
916.045	3521.1
908.992	3425.77
901.934	3398.58
894.867	3330.41
887.795	3475.79
880.717	3417.55
873.631	3341.07
866.539	3216.79
859.441	3219.5
852.338	3293.95
845.227	3257.21
838.109	3265.47
830.984	3178.3
823.854	3126.33
816.717	3201.91
809.574	3196.18
802.424	3177.88
795.268	3116.31
788.104	3077.18
780.934	3077.15
773.758	3123.08
766.574	3024.19
759.385	3043.67
752.189	3000.59
744.986	3140.79
737.777	3114.34
730.561	3180.74
723.338	3134.91
716.109	3156.92
708.873	3254.87
701.631	3290.52
694.381	3348.16
687.125	3339.56
679.863	3335.11
672.594	3300.4
665.318	3508.93
658.035	3601.77
650.744	3627.23
643.449	3710.19
636.146	3825.84
628.836	4078.02
621.52	4344.76
614.195	4800.72
606.865	5074.46
599.529	5389.92
592.186	5838.17
584.834	6450.13
577.477	7242.99
570.111	7644.79
562.74	8493.35
555.361	8797
547.977	8588.42
540.584	8611.46
533.186	8239.93
525.779	8010.81
518.365	7494.88
510.945	6903.11
503.52	6329.95
496.084	5929.97
488.645	5686.57
481.195	5435.56
473.74	5201.11
466.277	4959.06
458.809	4650.54
451.332	4408.11
443.848	4413.24
436.355	4283.58
428.857	4303.46
421.354	4188.78
413.84	4240.63
406.32	4261.79
398.793	4220.49
391.258	4184.56
383.717	4005.54
376.168	4005.62
368.611	3958.06
361.047	3765.21
353.477	3626.86
345.896	3768.4
338.311	3676.41
330.717	3758.36
323.117	3711.25
315.508	3595.91
307.891	3613.35
300.268	3403.9
292.637	3439.81
284.998	3484.8
277.352	3550.6
269.697	3518.31
262.035	3523.91
254.365	3434.33
246.688	3460.81
239.002	3275.21
231.311	3225.1
223.609	3262.06
215.9	3297.63
208.184	3261.87
200.459	3310.29
192.727	3259.05
184.986	3189.82
177.238	3296.17
169.482	3426.78
161.717	3739.91
153.945	3934.06
146.164	3855.42
138.375	3702.5
130.578	3831.92
122.771	3912.39
114.959	3976.04
107.137	4112.38
99.3066	4277.77
91.4668	4834.27
83.6211	4831.62
75.7637	4830.22
67.9004	4855.49
60.0273	3928.42
52.1465	880.203
44.2559	130.492
40.3086	63.311