File: PeakFitting/xrdData/jacobson_raman/C3_02137_532nm_5sec_1per_50x.txt
#Wave		#Intensity
1818.91	301.759
1812.64	335.095
1806.37	287.004
1800.1	291.563
1793.82	278.602
1787.53	307.019
1781.24	314.728
1774.95	287.481
1768.65	284.081
1762.35	271.171
1756.04	288.387
1749.72	289.741
1743.4	283.183
1737.08	245.018
1730.75	319.059
1724.42	310.911
1718.08	346.93
1711.73	299.38
1705.38	308.583
1699.03	303.613
1692.67	331.658
1686.3	312.54
1679.93	290.314
1673.56	297.915
1667.18	338.404
1660.79	330.297
1654.4	303.434
1648	323.498
1641.6	309.175
1635.19	337
1628.78	300.864
1622.36	325.533
1615.94	323.703
1609.51	304.771
1603.07	312.281
1596.63	282.523
1590.19	308.651
1583.74	300.64
1577.28	287.997
1570.82	340.351
1564.35	330.786
1557.88	313.515
1551.4	339.478
1544.92	311.435
1538.43	335.814
1531.93	284.734
1525.43	278.337
1518.92	291.925
1512.41	280.926
1505.89	299.088
1499.37	295.763
1492.84	309.286
1486.31	273.832
1479.77	301.105
1473.22	300.842
1466.67	320.414
1460.11	289.645
1453.55	286.344
1446.98	275.441
1440.4	282.801
1433.82	270.399
1427.24	300.516
1420.64	306.317
1414.05	307.562
1407.44	273.988
1400.83	285.845
1394.22	318.835
1387.6	285.339
1380.97	274.527
1374.33	305.932
1367.7	289.097
1361.05	284.327
1354.4	303.613
1347.74	292.831
1341.08	313.575
1334.41	299.805
1327.74	308.523
1321.05	294.781
1314.37	313.952
1307.68	301.722
1300.98	313.391
1294.27	283.29
1287.56	265.161
1280.85	287.248
1274.12	318.217
1267.39	304.561
1260.66	328.037
1253.92	320.327
1247.17	277.071
1240.42	269.421
1233.66	331.296
1226.89	320.655
1220.12	357.275
1213.35	311.228
1206.56	318.316
1199.77	353.365
1192.98	355.989
1186.18	342.441
1179.37	380.31
1172.55	393.17
1165.73	392.815
1158.91	380.745
1152.07	412.589
1145.24	407.831
1138.39	445.434
1131.54	427.522
1124.68	400.895
1117.82	422.38
1110.95	423.453
1104.07	433.247
1097.19	472.073
1090.3	449.878
1083.41	437.871
1076.51	436.026
1069.6	463.13
1062.69	391.858
1055.77	397.281
1048.84	407.025
1041.91	387.909
1034.97	391.88
1028.03	372.812
1021.07	340.835
1014.12	357.768
1007.15	348.83
1000.18	357.119
993.205	336.734
986.223	340.723
979.234	318.959
972.238	310.096
965.236	325.519
958.229	323.797
951.215	316.377
944.193	323.209
937.166	308.69
930.133	329.728
923.092	340.787
916.045	322.035
908.992	296.229
901.934	307.288
894.867	281.542
887.795	306.729
880.717	292.328
873.631	289.239
866.539	300.253
859.441	297.163
852.338	315.183
845.227	290.998
838.109	275.283
830.984	290.467
823.854	264.967
816.717	270.327
809.574	323.257
802.424	275.426
795.268	284.952
788.104	283.295
780.934	270.488
773.758	284.17
766.574	282.518
759.385	264.183
752.189	269.498
744.986	252.596
737.777	266.23
730.561	259.059
723.338	256.053
716.109	277.942
708.873	269.397
701.631	259.487
694.381	318.544
687.125	289.319
679.863	264.276
672.594	309.412
665.318	269.284
658.035	289.624
650.744	259.186
643.449	293.198
636.146	318.934
628.836	374.707
621.52	423.545
614.195	488.672
606.865	550.949
599.529	610.385
592.186	649.291
584.834	724.841
577.477	789.379
570.111	852.438
562.74	888.255
555.361	879.294
547.977	831.094
540.584	791.096
533.186	770.087
525.779	769.362
518.365	625.697
510.945	576.607
503.52	516.84
496.084	494.836
488.645	416.451
481.195	436.187
473.74	417.001
466.277	363.021
458.809	331.895
451.332	355.644
443.848	324.582
436.355	348.291
428.857	323.959
421.354	331.639
413.84	303.377
406.32	297.767
398.793	304.12
391.258	306.479
383.717	316.785
376.168	270.131
368.611	253.993
361.047	274.891
353.477	273.302
345.896	292.819
338.311	268.813
330.717	271.181
323.117	280.119
315.508	246.997
307.891	318.941
300.268	237.329
292.637	252.812
284.998	230.313
277.352	239.234
269.697	211.569
262.035	232.231
254.365	208.536
246.688	209.628
239.002	206.814
231.311	215.7
223.609	210.288
215.9	208.777
208.184	189.132
200.459	222.584
192.727	215.891
184.986	191.131
177.238	199.964
169.482	210.066
161.717	207.272
153.945	244.352
146.164	231.248
138.375	219.455
130.578	225.634
122.771	222.833
114.959	195.732
107.137	226.194
99.3066	238.718
91.4668	251.214
83.6211	250.943
75.7637	246.855
67.9004	283.449
60.0273	226.005
52.1465	97.6595
44.2559	58.2781
40.3086	45.5839