File: PeakFitting/xrdData/jacobson_raman/C3_02161_532nm_5sec_5per_50x.txt
#Wave		#Intensity
1818.91	2733.39
1812.64	2735.02
1806.37	2761.62
1800.1	2703.73
1793.82	2690.5
1787.53	2782.26
1781.24	2694.26
1774.95	2736.63
1768.65	2705.91
1762.35	2841.75
1756.04	2779.29
1749.72	2707.42
1743.4	2836.57
1737.08	2745.79
1730.75	2689.88
1724.42	2750.85
1718.08	2895.29
1711.73	2681.81
1705.38	2733.17
1699.03	2759.26
1692.67	2816.74
1686.3	2776.74
1679.93	2903.14
1673.56	2986.99
1667.18	2887.4
1660.79	2844.31
1654.4	3107.85
1648	2986.49
1641.6	2966.83
1635.19	3008.04
1628.78	3172.32
1622.36	3121.38
1615.94	3137.43
1609.51	3282.5
1603.07	3265.75
1596.63	3222.63
1590.19	3254.02
1583.74	3280.7
1577.28	3290.29
1570.82	3188.47
1564.35	3293.95
1557.88	3161.4
1551.4	3346.95
1544.92	3189.9
1538.43	3241.07
1531.93	3235.2
1525.43	3232.4
1518.92	3240.36
1512.41	3335.8
1505.89	3187.2
1499.37	3233.47
1492.84	3201.57
1486.31	3134.53
1479.77	3090.53
1473.22	3035.91
1466.67	3216.35
1460.11	3225.73
1453.55	3020.32
1446.98	3166.81
1440.4	3322.15
1433.82	3206.82
1427.24	3210.06
1420.64	3179.94
1414.05	3422.57
1407.44	3286.34
1400.83	3268.31
1394.22	3280.53
1387.6	3330.46
1380.97	3319.97
1374.33	3182.89
1367.7	3208.68
1361.05	3315.64
1354.4	3296.16
1347.74	3243.67
1341.08	3345.8
1334.41	3320.34
1327.74	3275.44
1321.05	3251.56
1314.37	3356.3
1307.68	3436.94
1300.98	3259.27
1294.27	3172.85
1287.56	3360.69
1280.85	3339.82
1274.12	3128.64
1267.39	3192.69
1260.66	3213.57
1253.92	3103.91
1247.17	3130.76
1240.42	3129.42
1233.66	3086.68
1226.89	3193.25
1220.12	3253.86
1213.35	3118.18
1206.56	3283.37
1199.77	3220.04
1192.98	3228.91
1186.18	3140.75
1179.37	3193.72
1172.55	3318.47
1165.73	3327.2
1158.91	3171.9
1152.07	3256.82
1145.24	3363.51
1138.39	3461.24
1131.54	3385.16
1124.68	3478.31
1117.82	3550.9
1110.95	3522.96
1104.07	3521.22
1097.19	3618.26
1090.3	3583.06
1083.41	3637.81
1076.51	3677.98
1069.6	3492.29
1062.69	3477.56
1055.77	3519.19
1048.84	3586.73
1041.91	3537.33
1034.97	3408.78
1028.03	3553.95
1021.07	3543.54
1014.12	3459.86
1007.15	3380.64
1000.18	3456.45
993.205	3358.75
986.223	3500.29
979.234	3514.28
972.238	3333.89
965.236	3262.33
958.229	3247.95
951.215	3207.95
944.193	3300.43
937.166	3199.28
930.133	3248.95
923.092	3302.8
916.045	3299.79
908.992	3288.29
901.934	3286.71
894.867	3248.35
887.795	3379.67
880.717	3290.45
873.631	3205.62
866.539	3170.28
859.441	3205.41
852.338	3215.15
845.227	3333.12
838.109	3174.18
830.984	3188.12
823.854	3197.83
816.717	3217.31
809.574	3259.16
802.424	3321.89
795.268	3228.06
788.104	3213.94
780.934	3213.79
773.758	3312.53
766.574	3187.03
759.385	3195.23
752.189	3228.42
744.986	3268.48
737.777	3427.71
730.561	3468.9
723.338	3454.63
716.109	3423.8
708.873	3540.84
701.631	3603.84
694.381	3618.44
687.125	3696.39
679.863	3628.29
672.594	3604.31
665.318	3889.5
658.035	4036.89
650.744	4070.18
643.449	4147.25
636.146	4215.95
628.836	4475.98
621.52	4769.67
614.195	5025.95
606.865	5213.56
599.529	5331.33
592.186	5693.88
584.834	6141.43
577.477	6651.98
570.111	6909.09
562.74	7385.4
555.361	7664.35
547.977	7582.72
540.584	7936.66
533.186	8025.12
525.779	8039.16
518.365	7790.2
510.945	7340.96
503.52	6963.89
496.084	6642.64
488.645	6542.31
481.195	6510.6
473.74	6460.16
466.277	5883.35
458.809	5579.31
451.332	5598.04
443.848	5378.97
436.355	5315.1
428.857	5220.68
421.354	5131.75
413.84	5129.47
406.32	4834.73
398.793	4896.46
391.258	4897.02
383.717	4860.46
376.168	4879.57
368.611	4656.54
361.047	4535.7
353.477	4416.4
345.896	4433.18
338.311	4532.92
330.717	4460.01
323.117	4488.49
315.508	4371.06
307.891	4323.42
300.268	4236.52
292.637	4090.83
284.998	4190.13
277.352	4374.19
269.697	4339.77
262.035	4288.44
254.365	4175.94
246.688	4053.24
239.002	4023.12
231.311	3995.65
223.609	4085.04
215.9	4226.11
208.184	4223.07
200.459	4165.68
192.727	4147.17
184.986	4078.32
177.238	4257.29
169.482	4258.02
161.717	4404.21
153.945	4550.08
146.164	4509.34
138.375	4667.59
130.578	4813.94
122.771	4915.14
114.959	4899.69
107.137	4971.15
99.3066	5246.68
91.4668	5419.58
83.6211	5639.22
75.7637	6011.05
67.9004	6162.15
60.0273	4890.85
52.1465	1112.3
44.2559	143.162
40.3086	70.9083