File: PeakFitting/xrdData/jacobson_raman/C3_02135_532nm_5sec_5per_50x.txt
#Wave		#Intensity
1818.91	1676.44
1812.64	1737.71
1806.37	1737.97
1800.1	1656.97
1793.82	1786.23
1787.53	1721.22
1781.24	1753.26
1774.95	1737.59
1768.65	1734.64
1762.35	1796.71
1756.04	1784.2
1749.72	1768.53
1743.4	1786.11
1737.08	1802.07
1730.75	1734.29
1724.42	1865.47
1718.08	1821.38
1711.73	1755.31
1705.38	1708.23
1699.03	1834.26
1692.67	1865.77
1686.3	1803
1679.93	1887.83
1673.56	1889.41
1667.18	1828.32
1660.79	1850.29
1654.4	1962.93
1648	1911.29
1641.6	1858.17
1635.19	1934.63
1628.78	1939.25
1622.36	1864.41
1615.94	1985.79
1609.51	2054.09
1603.07	1970.01
1596.63	1915.57
1590.19	1982.19
1583.74	1946.41
1577.28	2003.59
1570.82	2011.17
1564.35	1993.99
1557.88	2024.72
1551.4	1947.37
1544.92	1928.74
1538.43	2111.93
1531.93	1985.44
1525.43	1917.61
1518.92	1997.38
1512.41	2029.42
1505.89	1973.98
1499.37	1986.06
1492.84	1991.99
1486.31	1976.48
1479.77	1867.77
1473.22	1957.76
1466.67	2056.75
1460.11	1990.93
1453.55	1978.52
1446.98	1929.61
1440.4	2051.07
1433.82	2028
1427.24	1986.75
1420.64	1988.03
1414.05	2037.79
1407.44	1960.3
1400.83	2016.04
1394.22	1994.61
1387.6	2021.53
1380.97	1948.84
1374.33	1944.1
1367.7	2010.13
1361.05	1955.69
1354.4	1984.01
1347.74	1931.18
1341.08	2023.99
1334.41	1993.7
1327.74	2024.87
1321.05	2026.06
1314.37	2069.1
1307.68	2050.81
1300.98	2051.96
1294.27	2015.83
1287.56	2103.41
1280.85	2007.76
1274.12	2062.47
1267.39	2016.05
1260.66	2032.05
1253.92	2089.54
1247.17	2044.7
1240.42	2142.04
1233.66	2143.07
1226.89	2138.19
1220.12	2263.23
1213.35	2159.42
1206.56	2285.68
1199.77	2382.27
1192.98	2353.65
1186.18	2388.27
1179.37	2503.58
1172.55	2587.88
1165.73	2587.01
1158.91	2606.64
1152.07	2656.96
1145.24	2796.35
1138.39	2786.52
1131.54	2767.95
1124.68	2797.52
1117.82	2949.38
1110.95	2974.36
1104.07	3054.54
1097.19	2944.29
1090.3	3092.55
1083.41	3137.59
1076.51	3069.57
1069.6	3050.87
1062.69	3003.28
1055.77	3046.79
1048.84	3000.73
1041.91	2869.66
1034.97	2869.94
1028.03	2947.95
1021.07	2903.57
1014.12	2816.17
1007.15	2717.43
1000.18	2756.56
993.205	2811.37
986.223	2722.92
979.234	2650.37
972.238	2596.52
965.236	2567.03
958.229	2698.78
951.215	2518.19
944.193	2560.04
937.166	2497.97
930.133	2453.06
923.092	2572.94
916.045	2472.72
908.992	2524.33
901.934	2452.64
894.867	2542.37
887.795	2530.16
880.717	2471.37
873.631	2432.43
866.539	2362.55
859.441	2418.14
852.338	2452.52
845.227	2458.72
838.109	2383.44
830.984	2375.65
823.854	2352.46
816.717	2425.94
809.574	2425.12
802.424	2383.76
795.268	2366.22
788.104	2447.78
780.934	2399.53
773.758	2369.48
766.574	2317.2
759.385	2334.55
752.189	2293.51
744.986	2488.49
737.777	2429.35
730.561	2428.5
723.338	2386.13
716.109	2451.7
708.873	2573.78
701.631	2539.66
694.381	2586.97
687.125	2540.49
679.863	2583.57
672.594	2615.57
665.318	2793.13
658.035	2833.1
650.744	2886.7
643.449	3092.28
636.146	3023.71
628.836	3269.8
621.52	3556.42
614.195	3819.29
606.865	4095.3
599.529	4456.63
592.186	4922.08
584.834	5426.1
577.477	6077.27
570.111	6478.8
562.74	6909.41
555.361	7339.19
547.977	7313.35
540.584	7372.75
533.186	7244.22
525.779	7043.04
518.365	6506.44
510.945	6081.31
503.52	5562.76
496.084	5390.76
488.645	4955.76
481.195	4728.27
473.74	4526.67
466.277	4243.73
458.809	3902.44
451.332	3873.31
443.848	3721.34
436.355	3644.38
428.857	3636.88
421.354	3482.88
413.84	3412.99
406.32	3323.3
398.793	3229.78
391.258	3377.9
383.717	3279.19
376.168	3346.18
368.611	3184.18
361.047	3018.51
353.477	3005
345.896	3012.61
338.311	3021.51
330.717	2993.52
323.117	2931.39
315.508	2881.2
307.891	2896.72
300.268	2760.1
292.637	2661.73
284.998	2765.07
277.352	2781.91
269.697	2793.49
262.035	2738.5
254.365	2609.31
246.688	2583.24
239.002	2566.32
231.311	2615.69
223.609	2635.09
215.9	2647.96
208.184	2665.98
200.459	2607.6
192.727	2570.01
184.986	2549.27
177.238	2664.03
169.482	2750.19
161.717	2886.36
153.945	2826.76
146.164	2981.82
138.375	2960.72
130.578	2965.29
122.771	3106.86
114.959	3184.16
107.137	3387.79
99.3066	3468.43
91.4668	3758
83.6211	3812.56
75.7637	3933.14
67.9004	4017.86
60.0273	3052.33
52.1465	684.885
44.2559	110.222
40.3086	44.3177