File: PeakFitting/xrdData/jacobson_raman/C3_02155_532nm_5sec_5per_50x.txt
#Wave		#Intensity
1818.91	1511.99
1812.64	1420.17
1806.37	1487.64
1800.1	1489.68
1793.82	1381.86
1787.53	1523.96
1781.24	1519.6
1774.95	1467.58
1768.65	1475.95
1762.35	1541.39
1756.04	1478.38
1749.72	1491.46
1743.4	1551.97
1737.08	1470.11
1730.75	1530.53
1724.42	1541.93
1718.08	1543.84
1711.73	1455.93
1705.38	1541.34
1699.03	1588.85
1692.67	1581.27
1686.3	1536
1679.93	1555.14
1673.56	1625.99
1667.18	1621.52
1660.79	1545.04
1654.4	1673.58
1648	1651.87
1641.6	1583.35
1635.19	1678.76
1628.78	1608.76
1622.36	1546.67
1615.94	1654.31
1609.51	1663.8
1603.07	1594.03
1596.63	1569.4
1590.19	1668.89
1583.74	1620.98
1577.28	1656.76
1570.82	1646.06
1564.35	1711.12
1557.88	1638.62
1551.4	1629.5
1544.92	1660.47
1538.43	1699.1
1531.93	1697.63
1525.43	1688.48
1518.92	1653.22
1512.41	1688.63
1505.89	1653.42
1499.37	1498.74
1492.84	1708.73
1486.31	1727.13
1479.77	1643.08
1473.22	1653.87
1466.67	1689.04
1460.11	1737.87
1453.55	1616.02
1446.98	1645.04
1440.4	1716.57
1433.82	1708.98
1427.24	1657.39
1420.64	1710.52
1414.05	1725.68
1407.44	1696.91
1400.83	1704.48
1394.22	1737.73
1387.6	1773.93
1380.97	1693.92
1374.33	1696.94
1367.7	1734.58
1361.05	1767.64
1354.4	1641.32
1347.74	1767.5
1341.08	1821.44
1334.41	1776.34
1327.74	1746.3
1321.05	1782.15
1314.37	1826.9
1307.68	1801.37
1300.98	1777.37
1294.27	1728.07
1287.56	1865.06
1280.85	1916.97
1274.12	1845.36
1267.39	1809.54
1260.66	1908.85
1253.92	1874.51
1247.17	1877.27
1240.42	1857.82
1233.66	1924.18
1226.89	1971.21
1220.12	2016.68
1213.35	2003.07
1206.56	2032.21
1199.77	2170.25
1192.98	2106.51
1186.18	2038.48
1179.37	2180.54
1172.55	2253.39
1165.73	2252.82
1158.91	2143.89
1152.07	2177.07
1145.24	2299.35
1138.39	2352.77
1131.54	2302.49
1124.68	2428.7
1117.82	2464.37
1110.95	2485.42
1104.07	2500.62
1097.19	2560.82
1090.3	2590.43
1083.41	2566.33
1076.51	2610.36
1069.6	2539.98
1062.69	2478.39
1055.77	2532.49
1048.84	2606.69
1041.91	2513.48
1034.97	2483.83
1028.03	2529.08
1021.07	2490.83
1014.12	2573.34
1007.15	2417.41
1000.18	2482.62
993.205	2473.21
986.223	2435.17
979.234	2405.78
972.238	2427.89
965.236	2325.75
958.229	2404.94
951.215	2405.61
944.193	2293.79
937.166	2258.98
930.133	2285.35
923.092	2300.31
916.045	2322.34
908.992	2344.32
901.934	2315.28
894.867	2320.25
887.795	2391.64
880.717	2341.44
873.631	2273
866.539	2224.41
859.441	2229.42
852.338	2234.43
845.227	2257.69
838.109	2227.54
830.984	2151.14
823.854	2212.26
816.717	2224.25
809.574	2290.78
802.424	2274.71
795.268	2328.5
788.104	2252.41
780.934	2361.89
773.758	2251.07
766.574	2244.83
759.385	2233.04
752.189	2162.93
744.986	2320.55
737.777	2418.26
730.561	2457.6
723.338	2377.83
716.109	2403.3
708.873	2449.44
701.631	2599.01
694.381	2592.48
687.125	2665.87
679.863	2645.51
672.594	2632.07
665.318	2771.15
658.035	2947.03
650.744	2948.41
643.449	3030.63
636.146	3104.47
628.836	3283.48
621.52	3587.84
614.195	3893
606.865	4046.2
599.529	4248.17
592.186	4566.81
584.834	5095.64
577.477	5566.41
570.111	5851.69
562.74	6204.23
555.361	6477.51
547.977	6590.55
540.584	6668.2
533.186	6745.69
525.779	6719.09
518.365	6501.05
510.945	6050.33
503.52	5682.55
496.084	5423.03
488.645	5329.23
481.195	5054.4
473.74	5009.37
466.277	4755.44
458.809	4401.62
451.332	4196.86
443.848	3944.4
436.355	3865.89
428.857	3836.85
421.354	3669.34
413.84	3523.43
406.32	3502.75
398.793	3446.25
391.258	3606.1
383.717	3488.61
376.168	3479.92
368.611	3333.66
361.047	3182.39
353.477	3137.03
345.896	3115.49
338.311	3116.38
330.717	3185.72
323.117	3126.03
315.508	3003.38
307.891	3041.09
300.268	2879.42
292.637	2907.99
284.998	2924.72
277.352	2947.94
269.697	2948.9
262.035	3011.17
254.365	2941.67
246.688	2852.76
239.002	2938.32
231.311	2863.87
223.609	2896
215.9	2845.07
208.184	2860.29
200.459	2880.65
192.727	2809.17
184.986	2816.6
177.238	2938.82
169.482	3006.65
161.717	3105.22
153.945	3116.12
146.164	3152.69
138.375	3171.19
130.578	3266.56
122.771	3393.73
114.959	3450.25
107.137	3518.14
99.3066	3629.27
91.4668	3798.81
83.6211	3975.61
75.7637	4113.83
67.9004	4157.67
60.0273	3325.32
52.1465	747.031
44.2559	96.2856
40.3086	41.7853