File: PeakFitting/xrdData/jacobson_raman/C3_02158_532nm_5sec_5per_50x.txt
#Wave		#Intensity
1818.91	1698.79
1812.64	1702.6
1806.37	1774.64
1800.1	1647.41
1793.82	1671.61
1787.53	1775.3
1781.24	1697.62
1774.95	1675.65
1768.65	1753.69
1762.35	1822.08
1756.04	1717.64
1749.72	1695.7
1743.4	1779.78
1737.08	1798.91
1730.75	1696.38
1724.42	1789.71
1718.08	1818.23
1711.73	1791.55
1705.38	1788.52
1699.03	1898.76
1692.67	1740.03
1686.3	1779.44
1679.93	1890.97
1673.56	1894.12
1667.18	1840.85
1660.79	1820.55
1654.4	1962.93
1648	1920.67
1641.6	1847.24
1635.19	1943.99
1628.78	2021.87
1622.36	1808.34
1615.94	1883.08
1609.51	1968.57
1603.07	1914.08
1596.63	1955.93
1590.19	1899.99
1583.74	1952.61
1577.28	1926.18
1570.82	1919.89
1564.35	2029.54
1557.88	1910.43
1551.4	1944.28
1544.92	1919.49
1538.43	1939.4
1531.93	1962.36
1525.43	1945.29
1518.92	1958.97
1512.41	1997.18
1505.89	1958.64
1499.37	1943.15
1492.84	1947.58
1486.31	2034.61
1479.77	1863.18
1473.22	1884.46
1466.67	1959.1
1460.11	1987.88
1453.55	1809.45
1446.98	1925.04
1440.4	1956.8
1433.82	1914.06
1427.24	1892.65
1420.64	1903.11
1414.05	1981.73
1407.44	1869.48
1400.83	1911.68
1394.22	1885.81
1387.6	1965.67
1380.97	1867.39
1374.33	1954.65
1367.7	1903.22
1361.05	1942.15
1354.4	1923.89
1347.74	1893.64
1341.08	2043.49
1334.41	1968.22
1327.74	1929.02
1321.05	1918.32
1314.37	2070.59
1307.68	2026.92
1300.98	2007.19
1294.27	1938.3
1287.56	2018.5
1280.85	2000.32
1274.12	1997.04
1267.39	1950.68
1260.66	2103.3
1253.92	2018.36
1247.17	1973.58
1240.42	2039.9
1233.66	2046.94
1226.89	2058.4
1220.12	2133.31
1213.35	2104.84
1206.56	2306.31
1199.77	2264.48
1192.98	2231.55
1186.18	2303.02
1179.37	2389.05
1172.55	2499.86
1165.73	2491.74
1158.91	2414.8
1152.07	2569.17
1145.24	2670.64
1138.39	2690.13
1131.54	2639.55
1124.68	2714.43
1117.82	2837.23
1110.95	2823.02
1104.07	2890.25
1097.19	2884.73
1090.3	2850.19
1083.41	2859.21
1076.51	2810.27
1069.6	2731.02
1062.69	2737.22
1055.77	2805.53
1048.84	2775.56
1041.91	2682.2
1034.97	2671.12
1028.03	2638.47
1021.07	2674.91
1014.12	2616.45
1007.15	2509.28
1000.18	2507.01
993.205	2484.67
986.223	2564.02
979.234	2488.74
972.238	2409.32
965.236	2385.71
958.229	2392.1
951.215	2294.45
944.193	2279.55
937.166	2317.31
930.133	2219.98
923.092	2284.69
916.045	2325.18
908.992	2186.99
901.934	2227.49
894.867	2197.16
887.795	2195.16
880.717	2205.87
873.631	2157.3
866.539	2108.82
859.441	2130.84
852.338	2107.79
845.227	2160.69
838.109	2063.22
830.984	2075.36
823.854	2137.96
816.717	2127.6
809.574	2152.25
802.424	2133.5
795.268	2093.84
788.104	2094.71
780.934	2055.15
773.758	2115.95
766.574	1987.37
759.385	2068.97
752.189	2071.24
744.986	2088.77
737.777	2199.17
730.561	2064.16
723.338	2096.86
716.109	2093.55
708.873	2218.73
701.631	2292.6
694.381	2160.86
687.125	2178.16
679.863	2213.31
672.594	2275.9
665.318	2424.93
658.035	2403.47
650.744	2553.46
643.449	2540.14
636.146	2610.33
628.836	2936.12
621.52	3130.14
614.195	3439.81
606.865	3717.54
599.529	4023.36
592.186	4444.31
584.834	4955.57
577.477	5546.03
570.111	5938.56
562.74	6240.84
555.361	6378.61
547.977	6342.84
540.584	6215.18
533.186	6053.96
525.779	5772.91
518.365	5222.68
510.945	4814.94
503.52	4390.45
496.084	4134.84
488.645	3910.61
481.195	3681.42
473.74	3651.1
466.277	3373.02
458.809	3171.73
451.332	3160.68
443.848	3042.79
436.355	3023.86
428.857	2934.3
421.354	2807.61
413.84	2831.52
406.32	2780.93
398.793	2714.5
391.258	2816.68
383.717	2701.29
376.168	2640.4
368.611	2652.38
361.047	2514.99
353.477	2421.43
345.896	2477.09
338.311	2424.59
330.717	2473.54
323.117	2405.34
315.508	2329.39
307.891	2363.84
300.268	2213.32
292.637	2152.17
284.998	2142.18
277.352	2202.78
269.697	2167.93
262.035	2234.9
254.365	2170.08
246.688	2049.41
239.002	2074.65
231.311	2079.04
223.609	2022.4
215.9	2094.25
208.184	2050.65
200.459	2057.61
192.727	2015.41
184.986	2017.21
177.238	2062.85
169.482	2082.62
161.717	2149.97
153.945	2254.46
146.164	2248.25
138.375	2245.88
130.578	2248.64
122.771	2390.98
114.959	2378.21
107.137	2517.52
99.3066	2634.83
91.4668	2699.59
83.6211	2877.57
75.7637	2990.26
67.9004	3053.11
60.0273	2381.94
52.1465	544.103
44.2559	112.756
40.3086	55.7137