File: PeakFitting/xrdData/jacobson_raman/C3_02137_532nm_5sec_10per_50x.txt
#Wave		#Intensity
1818.91	2038.87
1812.64	2104.72
1806.37	2109.48
1800.1	2066.43
1793.82	2091.9
1787.53	2107.78
1781.24	2087.06
1774.95	2141.02
1768.65	2201.23
1762.35	2216.94
1756.04	2161.32
1749.72	2099.44
1743.4	2153.14
1737.08	2187.78
1730.75	2118.11
1724.42	2185.85
1718.08	2286.59
1711.73	2094.08
1705.38	2152.21
1699.03	2194.51
1692.67	2145.56
1686.3	2220.76
1679.93	2270.73
1673.56	2254.75
1667.18	2215.29
1660.79	2175.89
1654.4	2305.47
1648	2262.92
1641.6	2267.28
1635.19	2344.96
1628.78	2343
1622.36	2196.18
1615.94	2290.82
1609.51	2349.53
1603.07	2290.06
1596.63	2322.28
1590.19	2399.41
1583.74	2329.19
1577.28	2280.75
1570.82	2323.67
1564.35	2347.96
1557.88	2344.41
1551.4	2223.58
1544.92	2375.85
1538.43	2395.37
1531.93	2385.61
1525.43	2348.18
1518.92	2338.47
1512.41	2305.74
1505.89	2317.55
1499.37	2327.79
1492.84	2351.8
1486.31	2401.76
1479.77	2337
1473.22	2298.31
1466.67	2424.47
1460.11	2323.25
1453.55	2327.31
1446.98	2372.44
1440.4	2367.32
1433.82	2406.25
1427.24	2405.65
1420.64	2342.87
1414.05	2378.68
1407.44	2317.54
1400.83	2410.78
1394.22	2426.78
1387.6	2341.59
1380.97	2322.92
1374.33	2358.54
1367.7	2451.3
1361.05	2346.83
1354.4	2350.75
1347.74	2368.18
1341.08	2423.08
1334.41	2398.44
1327.74	2357.36
1321.05	2403.13
1314.37	2403.98
1307.68	2510.87
1300.98	2490.71
1294.27	2436.3
1287.56	2451.99
1280.85	2420.03
1274.12	2371.76
1267.39	2437.97
1260.66	2495.16
1253.92	2522.58
1247.17	2502.53
1240.42	2452.91
1233.66	2576.42
1226.89	2614
1220.12	2588.03
1213.35	2683.05
1206.56	2673.26
1199.77	2770.97
1192.98	2783.19
1186.18	2804.19
1179.37	2851.59
1172.55	2895.96
1165.73	2874.29
1158.91	2931.74
1152.07	2939.33
1145.24	3005.38
1138.39	3078.61
1131.54	3100.63
1124.68	3186.75
1117.82	3204.26
1110.95	3250.84
1104.07	3308.96
1097.19	3247.86
1090.3	3363.93
1083.41	3429.03
1076.51	3444.75
1069.6	3350.45
1062.69	3276.57
1055.77	3355.94
1048.84	3377.44
1041.91	3158.07
1034.97	3264.71
1028.03	3243.03
1021.07	3291.87
1014.12	3163.88
1007.15	3179.67
1000.18	3214.07
993.205	3099.39
986.223	3178.18
979.234	3176.72
972.238	3029.51
965.236	3038.18
958.229	3043.98
951.215	3015.56
944.193	2992.88
937.166	2907.66
930.133	2988.87
923.092	2993.25
916.045	2983.43
908.992	2901.35
901.934	2946.85
894.867	2975.29
887.795	3009.34
880.717	2972.7
873.631	2886.75
866.539	2846.06
859.441	2871.63
852.338	2860.57
845.227	2841.09
838.109	2834.29
830.984	2861.17
823.854	2857.15
816.717	2997.41
809.574	2879.92
802.424	2902.46
795.268	2818.79
788.104	2869.24
780.934	2895.89
773.758	2987.96
766.574	2887.81
759.385	2805.91
752.189	2899.18
744.986	2953.43
737.777	2967.36
730.561	2992.34
723.338	3031.11
716.109	3004.81
708.873	3115.33
701.631	3253.25
694.381	3188.2
687.125	3124.64
679.863	3182.32
672.594	3237.14
665.318	3250.64
658.035	3450.78
650.744	3587.47
643.449	3523.86
636.146	3678.01
628.836	3952.21
621.52	4243.65
614.195	4439
606.865	4657.16
599.529	5020.69
592.186	5295.05
584.834	5713.05
577.477	6285.14
570.111	6417.72
562.74	6701.92
555.361	7003.19
547.977	7095.43
540.584	7269.97
533.186	7221.25
525.779	7113.22
518.365	6742.43
510.945	6488.17
503.52	5989.43
496.084	5720.2
488.645	5608.65
481.195	5368.46
473.74	5229.27
466.277	5030.05
458.809	4780.35
451.332	4588.6
443.848	4476.02
436.355	4339.62
428.857	4330.12
421.354	4194.1
413.84	4078.29
406.32	4034.48
398.793	3973.48
391.258	4106.28
383.717	4090.37
376.168	4083.75
368.611	3886.63
361.047	3827.33
353.477	3712.68
345.896	3826.43
338.311	3796.32
330.717	3796.54
323.117	3857.23
315.508	3714.15
307.891	3748.54
300.268	3653.03
292.637	3539.36
284.998	3584.25
277.352	3714.01
269.697	3676.33
262.035	3594.36
254.365	3482.56
246.688	3446.49
239.002	3354.55
231.311	3382.33
223.609	3430.81
215.9	3397.48
208.184	3333.12
200.459	3439.7
192.727	3380.57
184.986	3408.07
177.238	3381.32
169.482	3455.13
161.717	3622.76
153.945	3657.56
146.164	3680.7
138.375	3699.93
130.578	3774.23
122.771	3946.97
114.959	3972.2
107.137	4100.88
99.3066	4196.07
91.4668	4367.55
83.6211	4720.79
75.7637	4746.24
67.9004	4924.13
60.0273	3863.67
52.1465	882.74
44.2559	152.03
40.3086	44.3177