File: PeakFitting/xrdData/jacobson_raman/C3_02125_532nm_5sec_5per_50x.txt
#Wave		#Intensity
1818.91	1709.97
1812.64	1745.69
1806.37	1774.64
1800.1	1762.12
1793.82	1719.37
1787.53	1748.26
1781.24	1727.82
1774.95	1721.71
1768.65	1836.21
1762.35	1839.52
1756.04	1755.67
1749.72	1755.86
1743.4	1877.87
1737.08	1753.07
1730.75	1740.61
1724.42	1848.11
1718.08	1840.31
1711.73	1789.97
1705.38	1812.14
1699.03	1845.27
1692.67	1813.9
1686.3	1796.71
1679.93	1908.23
1673.56	1906.66
1667.18	1836.15
1660.79	1914.47
1654.4	1931.65
1648	1923.8
1641.6	1942.49
1635.19	1939.31
1628.78	1897.16
1622.36	1903.35
1615.94	1855.07
1609.51	1977.9
1603.07	1851.94
1596.63	1918.67
1590.19	1909.29
1583.74	1938.66
1577.28	1896.76
1570.82	1915.25
1564.35	1981.63
1557.88	1922.79
1551.4	1913.42
1544.92	1936.45
1538.43	1976.37
1531.93	1988.52
1525.43	1991.42
1518.92	1926.7
1512.41	1946.53
1505.89	1857.41
1499.37	1872.66
1492.84	1921.55
1486.31	1901.52
1479.77	1866.24
1473.22	1849.34
1466.67	1930.11
1460.11	1974.16
1453.55	1852.1
1446.98	1867.21
1440.4	1917.27
1433.82	1939.89
1427.24	1838.01
1420.64	1936.47
1414.05	1919.61
1407.44	1887.64
1400.83	1892.02
1394.22	1916.03
1387.6	1926.42
1380.97	1814.59
1374.33	1871.76
1367.7	1874.61
1361.05	1903.03
1354.4	1914.87
1347.74	1823.06
1341.08	1911.46
1334.41	1843.8
1327.74	1845.15
1321.05	1894.38
1314.37	2012.28
1307.68	1977.62
1300.98	1916.16
1294.27	1948.74
1287.56	1996.15
1280.85	2019.67
1274.12	1936.07
1267.39	2007.13
1260.66	2024.63
1253.92	2104.37
1247.17	2035.81
1240.42	2149.44
1233.66	2148.99
1226.89	2271.18
1220.12	2248.47
1213.35	2371.82
1206.56	2425.68
1199.77	2533.92
1192.98	2503.69
1186.18	2558.75
1179.37	2616.65
1172.55	2815.27
1165.73	2872.83
1158.91	2864.38
1152.07	2959.82
1145.24	3097.47
1138.39	3185.22
1131.54	3275.72
1124.68	3230.49
1117.82	3408.17
1110.95	3377.44
1104.07	3452.89
1097.19	3327.75
1090.3	3384.24
1083.41	3408.73
1076.51	3383.91
1069.6	3276.64
1062.69	3172.46
1055.77	3211.48
1048.84	3142.17
1041.91	2986.47
1034.97	2874.27
1028.03	2900.45
1021.07	2928.02
1014.12	2850.65
1007.15	2721.74
1000.18	2714.97
993.205	2656.62
986.223	2559.72
979.234	2710.44
972.238	2473.62
965.236	2497.07
958.229	2471.98
951.215	2428.41
944.193	2325.11
937.166	2297.39
930.133	2272.56
923.092	2362.79
916.045	2312.41
908.992	2266.37
901.934	2214.74
894.867	2303.27
887.795	2344.99
880.717	2289.19
873.631	2229.26
866.539	2156.75
859.441	2173.09
852.338	2140.15
845.227	2223.95
838.109	2139.06
830.984	2023.44
823.854	2130.95
816.717	2145.81
809.574	2170.44
802.424	2098.55
795.268	2134.34
788.104	2131
780.934	2130.44
773.758	2072.77
766.574	1960.93
759.385	2052.29
752.189	2000.4
744.986	2070.73
737.777	2186.69
730.561	2127.88
723.338	2105.17
716.109	2076.96
708.873	2211.82
701.631	2264.99
694.381	2182.92
687.125	2229.13
679.863	2242.22
672.594	2220.89
665.318	2378.21
658.035	2432.29
650.744	2509.58
643.449	2533.29
636.146	2563.79
628.836	2885.52
621.52	3005.81
614.195	3467.11
606.865	3630.26
599.529	3959.33
592.186	4278.24
584.834	4746.14
577.477	5388.43
570.111	5802.82
562.74	6246.27
555.361	6385.38
547.977	6069.42
540.584	5962.3
533.186	5814.83
525.779	5547.5
518.365	5051.42
510.945	4623.63
503.52	4167.03
496.084	3896.84
488.645	3667.45
481.195	3619.68
473.74	3357.46
466.277	3169.4
458.809	2962.96
451.332	2981.52
443.848	2869.14
436.355	2815.68
428.857	2788.98
421.354	2710.39
413.84	2783.62
406.32	2772.96
398.793	2814.1
391.258	2668.09
383.717	2674.78
376.168	2621.86
368.611	2455.27
361.047	2332.61
353.477	2319.76
345.896	2396.63
338.311	2373.2
330.717	2381.39
323.117	2285.67
315.508	2293.92
307.891	2235.21
300.268	2184.48
292.637	2082.75
284.998	2180.13
277.352	2193.63
269.697	2141.81
262.035	2156.61
254.365	2132.29
246.688	2113.21
239.002	2048.63
231.311	1976.38
223.609	2034.08
215.9	2073.5
208.184	2031.22
200.459	1996.78
192.727	1952.07
184.986	1973.3
177.238	2049.95
169.482	2123.86
161.717	2308.32
153.945	2285.33
146.164	2329.18
138.375	2191.98
130.578	2198.64
122.771	2334.63
114.959	2416.58
107.137	2426.79
99.3066	2544.19
91.4668	2802.88
83.6211	2798.59
75.7637	2894.82
67.9004	3004.81
60.0273	2341.31
52.1465	523.81
44.2559	119.09
40.3086	27.8569