File: PeakFitting/xrdData/jacobson_raman/C3_02125_532nm_5sec_5per_50x_2.txt
#Wave		#Intensity
1818.91	2029.29
1812.64	2032.91
1806.37	2066.43
1800.1	2064.84
1793.82	2004.34
1787.53	2110.96
1781.24	2145.87
1774.95	2118.78
1768.65	2182.19
1762.35	2155.1
1756.04	2159.73
1749.72	2112.1
1743.4	2218
1737.08	2175.13
1730.75	2053.35
1724.42	2102.2
1718.08	2203.01
1711.73	2149.23
1705.38	2180.55
1699.03	2227.54
1692.67	2224.15
1686.3	2211.34
1679.93	2209.53
1673.56	2254.75
1667.18	2185.52
1660.79	2219.72
1654.4	2319.55
1648	2264.48
1641.6	2226.68
1635.19	2307.51
1628.78	2402.23
1622.36	2439.16
1615.94	2329.73
1609.51	2430.39
1603.07	2355.32
1596.63	2357.98
1590.19	2497.12
1583.74	2459.36
1577.28	2375.2
1570.82	2444.34
1564.35	2502.54
1557.88	2432.44
1551.4	2467.39
1544.92	2553.15
1538.43	2532.47
1531.93	2565.69
1525.43	2480.43
1518.92	2572.01
1512.41	2546.76
1505.89	2510.8
1499.37	2496.36
1492.84	2455.91
1486.31	2421.65
1479.77	2398.14
1473.22	2290.67
1466.67	2375.64
1460.11	2352.22
1453.55	2263.34
1446.98	2322.22
1440.4	2405.33
1433.82	2324.22
1427.24	2273.6
1420.64	2344.39
1414.05	2421.1
1407.44	2341.76
1400.83	2232.31
1394.22	2339.13
1387.6	2347.63
1380.97	2199.23
1374.33	2277.16
1367.7	2258.57
1361.05	2229.48
1354.4	2219.99
1347.74	2293.09
1341.08	2301.55
1334.41	2333.98
1327.74	2240.54
1321.05	2257.99
1314.37	2348.66
1307.68	2301.75
1300.98	2328.05
1294.27	2312.54
1287.56	2401.34
1280.85	2427.47
1274.12	2339.05
1267.39	2380.03
1260.66	2383.83
1253.92	2392.07
1247.17	2421.04
1240.42	2485.48
1233.66	2469.93
1226.89	2571.15
1220.12	2567.36
1213.35	2652.07
1206.56	2835.37
1199.77	2822.51
1192.98	2880.27
1186.18	2898.25
1179.37	2982.27
1172.55	3140.96
1165.73	3142.52
1158.91	3171.9
1152.07	3240.73
1145.24	3404.44
1138.39	3451.02
1131.54	3503.35
1124.68	3501.64
1117.82	3696.55
1110.95	3653.92
1104.07	3618.63
1097.19	3667.65
1090.3	3713.67
1083.41	3627.66
1076.51	3688.12
1069.6	3512.55
1062.69	3431.29
1055.77	3445.51
1048.84	3426.51
1041.91	3224.41
1034.97	3103.34
1028.03	3103.41
1021.07	3205.58
1014.12	3023.07
1007.15	2934.19
1000.18	2971.69
993.205	2850.06
986.223	2854.63
979.234	2834.88
972.238	2730.84
965.236	2622.71
958.229	2737.3
951.215	2689.21
944.193	2524.45
937.166	2554.87
930.133	2615.08
923.092	2605.6
916.045	2537.97
908.992	2598.03
901.934	2527.69
894.867	2501.34
887.795	2566.91
880.717	2527.86
873.631	2466.29
866.539	2461.23
859.441	2408.28
852.338	2460.96
845.227	2402.49
838.109	2391.87
830.984	2370.04
823.854	2395.92
816.717	2465.16
809.574	2399.94
802.424	2330.63
795.268	2331.3
788.104	2302.65
780.934	2403.72
773.758	2440.52
766.574	2329.73
759.385	2271.98
752.189	2326.85
744.986	2362.19
737.777	2369.73
730.561	2360.62
723.338	2370.91
716.109	2428.19
708.873	2431.48
701.631	2506.54
694.381	2524.91
687.125	2468.85
679.863	2469.33
672.594	2508.3
665.318	2702.45
658.035	2730.15
650.744	2814.02
643.449	2815.52
636.146	2929.26
628.836	3250.66
621.52	3445.75
614.195	3832.94
606.865	4091.21
599.529	4388.5
592.186	4856.75
584.834	5352.67
577.477	6010.69
570.111	6429.94
562.74	6875.5
555.361	7054.67
547.977	6882.92
540.584	6719.59
533.186	6626.8
525.779	6400.55
518.365	5989.97
510.945	5485.85
503.52	4981.32
496.084	4632.37
488.645	4398.26
481.195	4203.5
473.74	4092.24
466.277	3665.04
458.809	3442.07
451.332	3325.13
443.848	3257.84
436.355	3202.67
428.857	3167.6
421.354	3144.58
413.84	3153.53
406.32	3082.69
398.793	3034.56
391.258	3047.54
383.717	3030
376.168	3050.89
368.611	2864.04
361.047	2742.3
353.477	2620.79
345.896	2759.36
338.311	2632.78
330.717	2686.8
323.117	2665.74
315.508	2539.6
307.891	2529.21
300.268	2396.89
292.637	2326.39
284.998	2494.19
277.352	2358.35
269.697	2485.28
262.035	2430.59
254.365	2347.34
246.688	2361.89
239.002	2300.97
231.311	2270.05
223.609	2261.25
215.9	2386.02
208.184	2300.67
200.459	2258.19
192.727	2257.16
184.986	2263.87
177.238	2295.07
169.482	2412.54
161.717	2482.12
153.945	2611.99
146.164	2620.81
138.375	2560.31
130.578	2564.02
122.771	2713.7
114.959	2781.18
107.137	2843.4
99.3066	2950.14
91.4668	3228.8
83.6211	3263.54
75.7637	3332.55
67.9004	3476.38
60.0273	2703.17
52.1465	615.128
44.2559	105.154
40.3086	44.3177