File: PeakFitting/xrdData/jacobson_raman/FTO2_532nm_5sec_5per_50x.txt
#Wave		#Intensity
1818.91	1963.83
1812.64	2005.79
1806.37	2109.48
1800.1	2058.47
1793.82	2074.39
1787.53	2126.87
1781.24	2064.81
1774.95	2039.37
1768.65	2001.27
1762.35	2036.16
1756.04	2094.77
1749.72	2069.36
1743.4	2181.61
1737.08	2058.15
1730.75	2037.55
1724.42	1977.52
1718.08	2143.08
1711.73	1990.09
1705.38	2013.66
1699.03	2004.16
1692.67	1996.24
1686.3	1890.95
1679.93	1977.28
1673.56	1972.51
1667.18	1919.19
1660.79	1936.39
1654.4	1916.01
1648	1865.97
1641.6	1883.16
1635.19	1892.51
1628.78	1922.1
1622.36	1912.7
1615.94	1851.95
1609.51	1925.03
1603.07	1926.51
1596.63	1744.81
1590.19	1847.25
1583.74	1848.78
1577.28	1875.08
1570.82	1814.69
1564.35	1743.58
1557.88	1834.76
1551.4	1834.73
1544.92	1785.36
1538.43	1876.24
1531.93	1885.4
1525.43	1825.34
1518.92	1882.15
1512.41	1877.45
1505.89	1845.14
1499.37	1842.01
1492.84	1834.28
1486.31	1802.09
1479.77	1820.39
1473.22	1730.22
1466.67	1772.96
1460.11	1838.48
1453.55	1765.28
1446.98	1737.86
1440.4	1853.41
1433.82	1845.7
1427.24	1742.39
1420.64	1733.27
1414.05	1822.65
1407.44	1745.35
1400.83	1748.34
1394.22	1793.64
1387.6	1776.95
1380.97	1736.16
1374.33	1737.63
1367.7	1724.04
1361.05	1814.28
1354.4	1705.95
1347.74	1651.87
1341.08	1699.91
1334.41	1602.46
1327.74	1690.89
1321.05	1660.95
1314.37	1732.72
1307.68	1719.22
1300.98	1723.65
1294.27	1678.87
1287.56	1772.7
1280.85	1784.51
1274.12	1693.69
1267.39	1659.49
1260.66	1736.67
1253.92	1763.28
1247.17	1647.61
1240.42	1623.92
1233.66	1663.88
1226.89	1739.22
1220.12	1709.6
1213.35	1654.96
1206.56	1656.42
1199.77	1774.19
1192.98	1735.81
1186.18	1682.81
1179.37	1700.38
1172.55	1756.06
1165.73	1742.75
1158.91	1729.46
1152.07	1779.11
1145.24	1831.59
1138.39	1883.97
1131.54	1896.86
1124.68	1803.3
1117.82	1976.45
1110.95	1948.47
1104.07	1977.23
1097.19	2017.57
1090.3	2005.58
1083.41	2019.72
1076.51	2196.07
1069.6	2139.08
1062.69	2056.17
1055.77	2206
1048.84	2182.35
1041.91	2122.69
1034.97	2162.54
1028.03	2141.87
1021.07	2141.37
1014.12	2092.01
1007.15	2035.56
1000.18	1993.56
993.205	1937.3
986.223	1859.66
979.234	1948.08
972.238	1866.29
965.236	1764.66
958.229	1761.63
951.215	1767.15
944.193	1742.76
937.166	1738.33
930.133	1635.85
923.092	1644.3
916.045	1597.41
908.992	1635.64
901.934	1577.51
894.867	1491.18
887.795	1547.78
880.717	1608.51
873.631	1487.11
866.539	1506.9
859.441	1435.11
852.338	1535.11
845.227	1490.13
838.109	1532.31
830.984	1558.98
823.854	1622.04
816.717	1603.76
809.574	1651.27
802.424	1716.87
795.268	1705.52
788.104	1715.12
780.934	1724.71
773.758	1723.13
766.574	1717.38
759.385	1662.96
752.189	1640.6
744.986	1668.24
737.777	1694.44
730.561	1643.01
723.338	1644.27
716.109	1601.28
708.873	1638.49
701.631	1628.7
694.381	1645.12
687.125	1631.21
679.863	1581.53
672.594	1600.69
665.318	1588.22
658.035	1684.21
650.744	1649.74
643.449	1659.17
636.146	1650.79
628.836	1728.58
621.52	1666.86
614.195	1693.97
606.865	1624.21
599.529	1619.97
592.186	1543.6
584.834	1561.2
577.477	1622.24
570.111	1601.71
562.74	1639.54
555.361	1582.46
547.977	1553.9
540.584	1616
533.186	1650.96
525.779	1677.75
518.365	1646.5
510.945	1634.17
503.52	1629.93
496.084	1660.66
488.645	1720.88
481.195	1768.91
473.74	1840.97
466.277	1777.6
458.809	1798.65
451.332	1796.94
443.848	1793.88
436.355	1829.53
428.857	1809.11
421.354	1838
413.84	1826.92
406.32	1786.6
398.793	1826.05
391.258	1830.91
383.717	1880.83
376.168	1973.02
368.611	1832.19
361.047	1844.94
353.477	1831.25
345.896	1875.62
338.311	1917.27
330.717	1932.49
323.117	1964.78
315.508	1849.85
307.891	1951.71
300.268	1772.76
292.637	1823.39
284.998	1859.52
277.352	1860.27
269.697	1783.97
262.035	1834.36
254.365	1844.24
246.688	1822.85
239.002	1750.77
231.311	1720.4
223.609	1748.51
215.9	1824.53
208.184	1747.52
200.459	1726.32
192.727	1698.69
184.986	1668.52
177.238	1742.91
169.482	1738.52
161.717	1762.46
153.945	1776.05
146.164	1802.45
138.375	1735.11
130.578	1747.38
122.771	1987.57
114.959	1799.97
107.137	1874.72
99.3066	1839.53
91.4668	1933.2
83.6211	1992.26
75.7637	2009.2
67.9004	2001.94
60.0273	1529.98
52.1465	375.418
44.2559	84.8834
40.3086	45.5839