File: PeakFitting/xrdData/jacobson_raman/FTO_532nm_5sec_5per_50x.txt
#Wave		#Intensity
1818.91	1435.35
1812.64	1432.93
1806.37	1455.75
1800.1	1443.48
1793.82	1388.23
1787.53	1407.84
1781.24	1436.94
1774.95	1364.34
1768.65	1437.86
1762.35	1466.86
1756.04	1475.21
1749.72	1386.96
1743.4	1422.24
1737.08	1433.75
1730.75	1421.55
1724.42	1418.83
1718.08	1487.07
1711.73	1440.17
1705.38	1410.67
1699.03	1326.14
1692.67	1343.92
1686.3	1389.94
1679.93	1343.29
1673.56	1343.76
1667.18	1267.45
1660.79	1299.27
1654.4	1306.02
1648	1300.24
1641.6	1267.93
1635.19	1313.68
1628.78	1307.9
1622.36	1232.04
1615.94	1254.35
1609.51	1335.7
1603.07	1263.11
1596.63	1217.02
1590.19	1245.46
1583.74	1264.55
1577.28	1272.76
1570.82	1222.17
1564.35	1287.59
1557.88	1325.1
1551.4	1214.41
1544.92	1210.28
1538.43	1247.75
1531.93	1317.47
1525.43	1236.37
1518.92	1258.35
1512.41	1298.71
1505.89	1191.75
1499.37	1258.14
1492.84	1234.08
1486.31	1210.06
1479.77	1233.46
1473.22	1178.93
1466.67	1240.46
1460.11	1196.69
1453.55	1149.95
1446.98	1164.16
1440.4	1187.46
1433.82	1253.26
1427.24	1236.97
1420.64	1172.19
1414.05	1165.1
1407.44	1201.91
1400.83	1161.53
1394.22	1175.61
1387.6	1201.74
1380.97	1138.84
1374.33	1181.53
1367.7	1249.74
1361.05	1171.91
1354.4	1197.92
1347.74	1106.75
1341.08	1155.28
1334.41	1190.22
1327.74	1151.72
1321.05	1129.74
1314.37	1173.58
1307.68	1166.56
1300.98	1172.98
1294.27	1134.65
1287.56	1173.86
1280.85	1180.25
1274.12	1139.04
1267.39	1123.16
1260.66	1129.57
1253.92	1164.15
1247.17	1130.51
1240.42	1133.93
1233.66	1171.37
1226.89	1128.94
1220.12	1102.83
1213.35	1163.78
1206.56	1128.84
1199.77	1199.97
1192.98	1226.84
1186.18	1158.13
1179.37	1177.64
1172.55	1198.58
1165.73	1215.09
1158.91	1263.78
1152.07	1188.02
1145.24	1205.95
1138.39	1293.95
1131.54	1302.99
1124.68	1252.25
1117.82	1350.16
1110.95	1373.68
1104.07	1426.23
1097.19	1403.15
1090.3	1426.55
1083.41	1445.56
1076.51	1512.33
1069.6	1455.96
1062.69	1456.09
1055.77	1532.78
1048.84	1600.68
1041.91	1542.99
1034.97	1453.7
1028.03	1430.79
1021.07	1478.39
1014.12	1438.26
1007.15	1416.85
1000.18	1339.56
993.205	1293.92
986.223	1268.41
979.234	1314.46
972.238	1241.81
965.236	1214.99
958.229	1239.56
951.215	1195.68
944.193	1235.88
937.166	1163.63
930.133	1082.98
923.092	1121.76
916.045	1089.53
908.992	1105.54
901.934	1066.3
894.867	986.106
887.795	1038.92
880.717	1012.55
873.631	1011.63
866.539	959.964
859.441	959.089
852.338	927.259
845.227	1031.85
838.109	1054.78
830.984	1056.63
823.854	1010.8
816.717	1170.95
809.574	1154.49
802.424	1131.06
795.268	1149.58
788.104	1168.07
780.934	1122.38
773.758	1209.12
766.574	1128.68
759.385	1115.13
752.189	1084.94
744.986	1075.61
737.777	1098.2
730.561	1127.67
723.338	1067.12
716.109	1070.28
708.873	1103.84
701.631	1079.36
694.381	1045.27
687.125	1070.48
679.863	1000.67
672.594	990.12
665.318	1093.62
658.035	1054.18
650.744	1069.66
643.449	1064.56
636.146	1059.46
628.836	1050.27
621.52	1091.65
614.195	1031.94
606.865	1071.9
599.529	1073.62
592.186	1029.06
584.834	1038.98
577.477	1023.07
570.111	1046.54
562.74	1067.26
555.361	1035.1
547.977	1007.06
540.584	1092.66
533.186	1060.56
525.779	1089.25
518.365	1070.7
510.945	1173.42
503.52	1056.56
496.084	1099.94
488.645	1202.33
481.195	1246.82
473.74	1226.87
466.277	1214.98
458.809	1205.79
451.332	1280.85
443.848	1227.53
436.355	1317.1
428.857	1299.84
421.354	1230.66
413.84	1210.85
406.32	1280.13
398.793	1243.04
391.258	1253.78
383.717	1325.46
376.168	1338.74
368.611	1308.33
361.047	1295.16
353.477	1238.44
345.896	1312.41
338.311	1353.29
330.717	1378.28
323.117	1384.82
315.508	1315.13
307.891	1361.08
300.268	1303.34
292.637	1198.56
284.998	1281.12
277.352	1326.9
269.697	1302.06
262.035	1291.62
254.365	1302.05
246.688	1236.93
239.002	1238.28
231.311	1201.94
223.609	1235.77
215.9	1279.89
208.184	1209.92
200.459	1212.56
192.727	1150.56
184.986	1144.2
177.238	1198.49
169.482	1185.65
161.717	1235.91
153.945	1217.9
146.164	1235.89
138.375	1265.4
130.578	1252.52
122.771	1348.53
114.959	1290.81
107.137	1326.49
99.3066	1230.61
91.4668	1352.98
83.6211	1354.08
75.7637	1440.41
67.9004	1368.94
60.0273	1023.37
52.1465	268.881
44.2559	81.0826
40.3086	59.5124