File: PeakFitting/xrdData/jacobson_raman/FTOback_532nm_5sec_5per_50x.txt
#Wave		#Intensity
1818.91	2038.87
1812.64	2036.1
1806.37	2162.1
1800.1	2050.5
1793.82	2069.61
1787.53	2056.87
1781.24	2136.34
1774.95	2017.13
1768.65	2045.7
1762.35	2082.15
1756.04	2031.38
1749.72	2028.19
1743.4	2055.05
1737.08	2138.77
1730.75	1947.52
1724.42	1990.15
1718.08	2125.74
1711.73	2049.96
1705.38	1971.15
1699.03	1947.53
1692.67	2010.38
1686.3	1908.22
1679.93	1928.63
1673.56	1994.47
1667.18	1919.19
1660.79	1867.51
1654.4	1995.78
1648	1894.1
1641.6	1867.54
1635.19	1945.55
1628.78	1937.69
1622.36	1839.49
1615.94	1822.38
1609.51	1935.92
1603.07	1839.51
1596.63	1822.43
1590.19	1868.97
1583.74	1879.78
1577.28	1783.72
1570.82	1774.47
1564.35	1885.79
1557.88	1828.58
1551.4	1732.88
1544.92	1813.11
1538.43	1825.41
1531.93	1791.52
1525.43	1831.49
1518.92	1832.98
1512.41	1814.51
1505.89	1843.61
1499.37	1742.4
1492.84	1799.06
1486.31	1757.72
1479.77	1714.92
1473.22	1659.98
1466.67	1745.49
1460.11	1795.8
1453.55	1681.51
1446.98	1687.65
1440.4	1721.13
1433.82	1737.85
1427.24	1640.7
1420.64	1699.91
1414.05	1652.96
1407.44	1840.71
1400.83	1653.06
1394.22	1657.64
1387.6	1696.94
1380.97	1663.76
1374.33	1574.87
1367.7	1672.85
1361.05	1636.76
1354.4	1620.27
1347.74	1629.34
1341.08	1638.39
1334.41	1657.92
1327.74	1584.55
1321.05	1550.22
1314.37	1610.13
1307.68	1574.33
1300.98	1555.02
1294.27	1634.14
1287.56	1583.52
1280.85	1576.14
1274.12	1607.44
1267.39	1531.72
1260.66	1543.7
1253.92	1570.49
1247.17	1518.71
1240.42	1515.86
1233.66	1514.5
1226.89	1523.48
1220.12	1595.92
1213.35	1505.99
1206.56	1559.16
1199.77	1597.51
1192.98	1509.28
1186.18	1509.38
1179.37	1493.34
1172.55	1593.22
1165.73	1546.34
1158.91	1512.73
1152.07	1502.59
1145.24	1526.08
1138.39	1631.31
1131.54	1591.9
1124.68	1497.16
1117.82	1734.67
1110.95	1657.43
1104.07	1709.73
1097.19	1703.82
1090.3	1668.9
1083.41	1748.59
1076.51	1796.25
1069.6	1754.1
1062.69	1748.18
1055.77	1768.26
1048.84	1776.76
1041.91	1760.73
1034.97	1717.36
1028.03	1777.69
1021.07	1730.06
1014.12	1765.85
1007.15	1643.67
1000.18	1673.73
993.205	1566.17
986.223	1559.02
979.234	1530.43
972.238	1446.16
965.236	1486.25
958.229	1479.2
951.215	1472.15
944.193	1433.79
937.166	1404.04
930.133	1331.7
923.092	1357.47
916.045	1300.91
908.992	1302.56
901.934	1287.21
894.867	1194.08
887.795	1273.56
880.717	1210.26
873.631	1219.04
866.539	1192.55
859.441	1211.18
852.338	1191.79
845.227	1237.09
838.109	1161.52
830.984	1184.32
823.854	1226.7
816.717	1294.21
809.574	1307.02
802.424	1231.73
795.268	1329.77
788.104	1286.69
780.934	1314.79
773.758	1295.48
766.574	1251.15
759.385	1179.09
752.189	1162.73
744.986	1124.19
737.777	1161.98
730.561	1177.54
723.338	1092.03
716.109	1056.46
708.873	1062.39
701.631	1104.2
694.381	1147.31
687.125	1081.5
679.863	1105.28
672.594	1068.5
665.318	1055.15
658.035	1103.59
650.744	1113.54
643.449	1094.7
636.146	1055.36
628.836	1011.98
621.52	1050.67
614.195	1052.42
606.865	1032.35
599.529	1024.57
592.186	1041.31
584.834	987.306
577.477	1067.9
570.111	1015.32
562.74	1019.8
555.361	1033.75
547.977	1051.73
540.584	1023.69
533.186	1075.42
525.779	1083.86
518.365	1082.83
510.945	1068.34
503.52	1068.68
496.084	1079.77
488.645	1131.13
481.195	1166.3
473.74	1209.44
466.277	1212.3
458.809	1158.95
451.332	1175.23
443.848	1195.48
436.355	1191.66
428.857	1257.18
421.354	1204.02
413.84	1250.77
406.32	1224.3
398.793	1203.2
391.258	1298.89
383.717	1244.61
376.168	1305.63
368.611	1303.04
361.047	1244.94
353.477	1247.68
345.896	1297.9
338.311	1268.95
330.717	1296.67
323.117	1378.24
315.508	1267.83
307.891	1332.2
300.268	1182.71
292.637	1212.97
284.998	1223.54
277.352	1205.32
269.697	1200.2
262.035	1245.96
254.365	1223.85
246.688	1156.21
239.002	1152.44
231.311	1151.27
223.609	1143.6
215.9	1183.93
208.184	1110.18
200.459	1121.98
192.727	1115.65
184.986	1105.46
177.238	1162.37
169.482	1098.01
161.717	1117.47
153.945	1160.03
146.164	1121.55
138.375	1116.53
130.578	1148.68
122.771	1237.11
114.959	1184.63
107.137	1137.36
99.3066	1231.89
91.4668	1193.58
83.6211	1282.74
75.7637	1225.37
67.9004	1244.38
60.0273	997.976
52.1465	237.173
44.2559	88.6841
40.3086	44.3177