File: PeakFitting/xrdData/ivy_raman/CLT_20x-0.4_single accumulation_for Sam.csv
-52.9686,200.8
-48.1205,200.8
-43.2751,201.2
-38.4323,200.8
-33.5921,201
-28.7546,201
-23.9197,200.9
-19.0875,201.6
-14.2579,200.9
-9.43094,202.8
-4.60661,210.8
0.215091,235
5.03416,250.8
9.85061,252.1
14.6644,247.9
19.4756,230
24.2842,210.7
29.0902,202.4
33.8935,200.9
38.6943,200.7
43.4924,201.5
48.2879,200.9
53.0808,201.3
57.8711,200.7
62.6588,201.2
67.4439,200.6
72.2264,201.2
77.0063,201
81.7836,200.8
86.5583,201.6
91.3305,201.6
96.1,201.3
100.867,201.3
105.631,201.5
110.393,201.6
115.152,202
119.909,200.9
124.663,202.6
129.414,202.5
134.163,204.6
138.91,210.3
143.653,224.8
148.395,244.8
153.133,266.8
157.869,290.4
162.603,309.1
167.334,321.3
172.062,328.1
176.788,328.9
181.511,331.5
186.232,329.5
190.95,329.1
195.666,334.3
200.379,353.4
205.089,387.9
209.797,441
214.503,480.9
219.205,496.2
223.906,493.9
228.604,475.9
233.299,456.2
237.992,451.5
242.682,463.4
247.37,480.7
252.055,492.2
256.737,508
261.418,506.3
266.095,501.2
270.77,478.3
275.443,446.1
280.113,428.7
284.781,414
289.446,406.1
294.108,403.4
298.768,404.7
303.426,412.7
308.081,428.4
312.733,460.6
317.383,484.3
322.031,492.3
326.676,488.1
331.318,466.4
335.958,445.5
340.596,446
345.231,478.4
349.864,551.4
354.494,662.4
359.121,749.5
363.747,797.2
368.369,797.8
372.99,758.5
377.607,713.5
382.222,686.6
386.835,671.1
391.446,655.2
396.053,637.4
400.659,602.2
405.262,562.7
409.862,535.8
414.46,514.5
419.056,490
423.649,478.6
428.24,468.4
432.828,445.6
437.413,438.6
441.997,431
446.578,428.3
451.156,444.3
455.732,476.9
460.305,520.5
464.877,580.6
469.445,608.9
474.011,597.2
478.575,548.8
483.137,481.3
487.695,419.4
492.252,379.6
496.806,356.8
501.358,346.7
505.907,340.8
510.454,331.2
514.998,329.1
519.54,323.6
524.08,319.4
528.617,315.7
533.151,311.5
537.684,310.7
542.214,311.4
546.741,312.9
551.266,316.2
555.789,321.8
560.309,328.6
564.827,343.4
569.343,354.8
573.856,377
578.366,409.4
582.875,451.7
587.381,527.8
591.884,631.6
596.385,725.9
600.884,802.5
605.38,813.7
609.874,765.3
614.366,682
618.855,587.5
623.342,515.1
627.827,470.3
632.309,446.3
636.789,433.7
641.266,430.7
645.741,435
650.214,448
654.684,472.5
659.152,494.3
663.617,520.1
668.081,527.9
672.541,514.5
677,481.4
681.456,445.4
685.91,409.1
690.361,383.1
694.811,360.3
699.257,343.9
703.702,331.4
708.144,323.7
712.583,316.8
717.021,309.4
721.456,305.3
725.889,302.8
730.319,301.4
734.747,300.8
739.173,303.6
743.596,305.5
748.017,309.2
752.436,315.5
756.852,318.2
761.267,315.8
765.678,312.7
770.088,305
774.495,295.8
778.9,290.2
783.302,284.4
787.703,283.7
792.1,281
796.496,280.9
800.889,281.1
805.28,282.4
809.669,284.7
814.055,286.2
818.439,289.5
822.821,294.9
827.201,299.2
831.578,304.8
835.953,315.3
840.325,332.9
844.696,346.7
849.064,365.9
853.43,400
857.793,437.2
862.154,496.5
866.513,550.1
870.87,592.8
875.224,591.3
879.576,563.2
883.926,515.7
888.273,460.1
892.619,420.2
896.962,387.1
901.302,359.1
905.641,341.7
909.977,331.7
914.311,322.6
918.643,314
922.972,307
927.299,302
931.624,297.2
935.947,290.6
940.267,285.2
944.585,281
948.901,276.4
953.215,272.3
957.526,270.1
961.835,266.1
966.142,262.1
970.447,261.5
974.749,257.9
979.049,257.5
983.347,255.8
987.643,254.6
991.937,253.5
996.228,252.2
1000.52,250.3
1004.8,251
1009.09,249.2
1013.37,250.5
1017.65,247.9
1021.93,247
1026.2,245.9
1030.48,246.8
1034.75,245.6
1039.02,244.6
1043.28,243.7
1047.55,243.4
1051.81,243.3
1056.07,241.7
1060.33,241.2
1064.59,242
1068.84,241
1073.09,241
1077.34,239.4
1081.59,238.5
1085.83,238.9
1090.07,237.9
1094.31,237.2
1098.55,237.7
1102.79,237