File: PeakFitting/xrdData/ivy_raman/SLT_20x-0.4_single accumulation_for Sam.csv
-52.9686,200.6
-48.1205,201.1
-43.2751,200.8
-38.4323,201
-33.5921,201
-28.7546,200.9
-23.9197,200.7
-19.0875,200.2
-14.2579,201.3
-9.43094,202.7
-4.60661,214.3
0.215091,239.8
5.03416,263.9
9.85061,264.9
14.6644,258.2
19.4756,242.5
24.2842,214.1
29.0902,202.1
33.8935,201.3
38.6943,200.5
43.4924,201.2
48.2879,200.5
53.0808,201.4
57.8711,201.6
62.6588,200.6
67.4439,200.3
72.2264,201.3
77.0063,201.3
81.7836,200.6
86.5583,200.7
91.3305,200.7
96.1,200.9
100.867,200.8
105.631,201.1
110.393,200.8
115.152,201.3
119.909,201.2
124.663,201.2
129.414,200.9
134.163,201.9
138.91,205.5
143.653,210.5
148.395,214.6
153.133,217.9
157.869,220.3
162.603,222
167.334,220.6
172.062,220.9
176.788,220.6
181.511,222.1
186.232,221.6
190.95,223.8
195.666,225.2
200.379,231.7
205.089,248.6
209.797,271.2
214.503,286
219.205,292.5
223.906,288
228.604,272.4
233.299,257.4
237.992,252.5
242.682,259
247.37,276.9
252.055,301.2
256.737,337.3
261.418,365.9
266.095,379
270.77,368.9
275.443,343.9
280.113,313.8
284.781,286.4
289.446,270.6
294.108,262.6
298.768,262.7
303.426,272.2
308.081,296.4
312.733,338.9
317.383,378.4
322.031,397.5
326.676,393.5
331.318,369.3
335.958,331.9
340.596,309
345.231,324.7
349.864,409.8
354.494,566.2
359.121,683.9
363.747,738.8
368.369,753.5
372.99,689.8
377.607,611.1
382.222,575.2
386.835,571.5
391.446,573.5
396.053,576.2
400.659,574.3
405.262,590.2
409.862,611.9
414.46,626.4
419.056,572.5
423.649,527
428.24,449.6
432.828,377
437.413,343.8
441.997,331.5
446.578,326.9
451.156,335.2
455.732,374.1
460.305,449.2
464.877,530.9
469.445,577.3
474.011,553.8
478.575,503
483.137,416.1
487.695,343.7
492.252,308.1
496.806,296
501.358,288.1
505.907,282.7
510.454,279.3
514.998,275.8
519.54,269.3
524.08,265.2
528.617,259.7
533.151,255.5
537.684,251.2
542.214,246.5
546.741,244.4
551.266,244.5
555.789,243.4
560.309,244.3
564.827,246.5
569.343,247.8
573.856,250.8
578.366,255.1
582.875,262.4
587.381,278.1
591.884,295.4
596.385,305.2
600.884,303.9
605.38,295.5
609.874,277.7
614.366,261.5
618.855,249.3
623.342,244.7
627.827,244.3
632.309,247.8
636.789,250.2
641.266,258.6
645.741,270
650.214,294.2
654.684,330.4
659.152,371.6
663.617,413.5
668.081,433.1
672.541,423.8
677,392.7
681.456,350.3
685.91,308.2
690.361,280.6
694.811,264.3
699.257,253.8
703.702,247.7
708.144,244.1
712.583,242
717.021,238.4
721.456,238.7
725.889,237.4
730.319,238.5
734.747,239.7
739.173,241.2
743.596,240.7
748.017,239.6
752.436,241.2
756.852,241.7
761.267,239.9
765.678,236.7
770.088,235.1
774.495,232.3
778.9,230.6
783.302,228.1
787.703,227.8
792.1,227.2
796.496,227.2
800.889,229.1
805.28,230.7
809.669,233.7
814.055,236.6
818.439,242.3
822.821,243.9
827.201,247.9
831.578,255.1
835.953,266.2
840.325,282.5
844.696,309.6
849.064,352.3
853.43,431.8
857.793,547.2
862.154,704.8
866.513,846.4
870.87,941
875.224,900.9
879.576,787.6
883.926,658.1
888.273,520.3
892.619,421.1
896.962,361.5
901.302,323.3
905.641,297
909.977,279.2
914.311,267.4
918.643,262.2
922.972,256.6
927.299,251.3
931.624,248.7
935.947,247.3
940.267,246.3
944.585,244.9
948.901,243
953.215,240.4
957.526,239.8
961.835,236.2
966.142,234.6
970.447,230.6
974.749,229.4
979.049,228.6
983.347,226.9
987.643,224.4
991.937,224.5
996.228,224.1
1000.52,222.6
1004.8,222.3
1009.09,221.3
1013.37,220.8
1017.65,219.4
1021.93,218.8
1026.2,218.7
1030.48,218.7
1034.75,216.5
1039.02,217.6
1043.28,216.1
1047.55,215.8
1051.81,215.3
1056.07,215
1060.33,215.3
1064.59,213.5
1068.84,213.6
1073.09,212.8
1077.34,212.4
1081.59,211.8
1085.83,211.9
1090.07,211.5
1094.31,210.4
1098.55,210.9
1102.79,210