File: PeakFitting/xrdData/palmiotti_xrd/HT_XRD_Palmiotti.csv
2theta,150,160,170,180,190,200,210,220,230,240,250,260,270,280,290,300,310,320,330,340,350,360,370,380,390,400,410
20.97892,92.5846,98.95657,93.3451,92.91966,88.89265,85.12593,101.348,100.576,109.862,109.298,111.4886,115.82,119.331,111.959,117.573,108.479,119.649,108.758,113.72,110.289,118.781,119.014,119.03,113.7854,118.562,118.028,120.883
21.96492,111.058,108.333,108.09,103.711,100.305,108.81,106.927,108.585,115.318,111.129,115.279,116.5123,113.275,111.16,110.092,112.69,113.509,104.506,109.687,114.649,114.315,122.453,120.149,124.507,125.189,125.425,125.906
22.95092,118.709,123.097,123.849,119.11,115.047,112.384,115.724,113.642,115.367,118.798,117.124,118.727,125.872,122.356,117.377,118.856,118.386,118.063,118.424,119.231,124.3523,126.115,126.775,125.28,125.252,122.828,123.979
23.93692,114.367,120.358,117.204,120.021,122.478,115.568,120.719,117.661,116.839,116.765,119.144,121.571,119.6,115.727,117.533,111.974,121.081,115.43,116.135,119.072,113.69,114.411,119.48,118.169,116.1867,120.8226,126.81
24.92292,131.332,138.45,151.3319,153.386,154.625,145.484,151.297,153.005,155.743,152.694,149.702,156.142,148.231,143.174,144.569,139.11,137.443,136.129,134.323,136.569,128.404,127.297,128.185,128.99,124.6701,121.595,123.9546
25.90892,127.626,135.775,156.177,167.643,168.413,180.956,191.448,204.9013,202.026,212.83,213.324,218.786,218.263,210.2147,198.596,198.378,191.986,186.143,183.267,145.736,128.24,118.997,119.952,109.112,122.517,122.8,115.924
26.89492,136.631,148.026,183.862,190.241,191.961,200.481,208.106,224.799,235.104,247.545,275.69,309.852,346.605,390.658,422.834,429.469,449.785,457.983,454.605,303.268,146.657,135.554,121.856,120.786,114.229,119.752,115.851
27.88092,135.438,136.122,152.248,149.777,150.944,154.559,156.765,160.756,156.952,153.175,157.212,154.9662,147.239,142.234,140.084,139.745,135.5,141.063,138.357,142.1221,141.004,118.457,117.959,117.1454,115.396,115.326,116.234
28.86692,133.751,132.829,128.574,120.549,124.064,121.0619,122.116,127.309,124.206,128.7554,125.073,127.146,120.617,116.0714,122.9339,115.133,116.933,116.636,119.57,120.667,119.743,115.19,122.066,118.106,115.733,116.305,115.247
29.85292,119.134,115.304,102.997,110.001,104.388,102.888,109.482,106.327,102.032,107.845,105.824,100.158,100.491,102.5287,99.46357,101.84,102.949,97.99844,99.89527,122.73,138.934,138.2974,132.583,134.209,130.259,133.736,131.686
30.83892,97.23714,100.904,91.64137,91.54779,90.92252,94.52045,92.78122,90.77348,91.45231,89.57119,90.10557,88.14677,85.4943,95.67811,88.94746,89.22838,88.11695,89.25995,92.42678,165.284,212.588,198.385,211.253,208.278,207.0424,215.779,217.739
31.82492,99.00365,94.9712,86.51009,87.61417,89.12979,80.64954,88.93498,89.23585,85.41854,87.00873,90.9682,83.82045,89.97805,84.78816,79.22519,79.04601,86.29958,84.95396,86.42902,95.92622,97.7738,97.95897,97.36277,99.4202,99.51544,104.6886,103.282
32.81092,85.76472,85.30581,77.46791,76.11849,77.17614,75.18696,78.94612,78.44564,78.03824,80.5532,81.37266,78.95308,80.30518,82.06157,80.8943,81.39818,79.79511,77.90995,79.64115,87.48408,84.5921,89.19825,87.40124,88.62784,93.46093,95.64019,93.8472
33.79692,76.19959,78.53646,71.58254,74.517,69.83713,75.10813,74.50036,73.41993,73.4722,74.77493,73.47453,75.22503,71.92482,74.55184,72.45013,72.5829,69.98918,73.28601,76.05654,76.77355,76.7959,79.93005,76.30864,78.88303,74.71327,78.1685,76.64891
34.78292,75.62812,74.57256,69.6158,71.2418,68.32726,71.77862,70.15703,76.74737,71.03622,71.95688,72.54633,69.21452,69.75524,72.65588,69.63781,69.27337,71.31586,70.79589,76.24315,75.2637,76.71295,81.99818,80.23108,82.9355,83.98555,85.6829,83.57987
35.76892,77.51689,74.14588,69.11434,70.74731,67.86352,69.50013,71.96799,71.85629,75.5275,69.05996,70.34177,71.95943,67.42057,72.2642,70.24815,71.03153,68.83191,71.83471,74.30312,84.58115,87.62777,87.40916,90.19921,86.42803,89.51921,93.2289,87.78711
36.75492,62.64635,57.80117,53.23718,55.27378,55.68248,52.67232,57.00241,56.06815,59.6548,58.5772,59.92644,58.32085,56.7308,57.16115,60.56973,55.98466,55.94972,55.52445,53.7684,56.95474,54.09169,60.07966,58.6311,56.93879,58.46158,59.48376,56.12076
37.74092,58.61277,54.29369,55.95445,57.19788,54.68518,56.24951,57.34118,58.13181,55.51965,58.06111,58.35043,58.61136,59.64983,56.15084,57.66505,53.52513,57.61775,56.35492,58.16401,58.23658,59.12379,61.5512,63.44613,61.77442,58.56136,56.73062,58.51155
38.72692,51.98467,53.51999,50.14684,53.14657,54.43135,50.98967,51.99968,53.94264,48.38991,53.61596,52.81287,50.83796,50.64919,46.50891,50.92034,51.30343,50.64321,48.28602,48.96807,49.2414,51.12657,52.68826,52.83012,49.49306,53.60666,52.48905,53.14162
39.71292,55.75259,55.36242,50.75493,54.64249,51.26524,52.82913,54.79801,51.52895,53.07258,54.73953,55.72343,51.31572,54.04619,51.96286,53.20863,51.49537,54.10538,51.71812,51.26104,51.50113,52.66992,54.04063,55.0555,52.85973,53.52797,54.14932,54.51142
40.69892,58.40133,59.78511,58.32707,56.91288,57.19238,55.40938,57.41042,59.92138,57.95186,55.57291,58.46976,56.125,59.21751,56.54085,57.56168,58.47294,56.7995,56.23995,55.63115,57.56543,53.77012,58.09081,55.96522,56.64884,55.53819,53.34258,54.76637
41.68492,58.47459,58.11891,58.6006,56.41739,57.562,57.05539,56.00275,56.61109,59.63938,59.22535,57.61774,55.3013,54.16066,54.51189,57.69959,54.20813,58.23756,54.0832,58.60704,59.86784,58.70638,57.30448,58.8301,59.52593,60.0718,60.18964,58.50615
42.67092,52.55705,55.80938,56.42084,54.25761,57.74133,54.55004,58.59957,58.61707,57.10184,59.44824,58.94845,58.01228,57.21553,54.603,56.10839,53.76661,52.4676,52.54869,53.8448,47.01262,50.64233,49.26852,53.14073,52.90069,49.98735,49.35209,47.94457
43.65692,52.75219,54.47116,62.62144,60.40172,61.10577,62.67863,63.58194,68.8773,72.04255,72.30108,72.87138,75.94919,77.54741,71.3302,73.20282,73.07904,73.46636,66.56732,66.36938,52.19581,48.77859,68.91063,65.27525,63.18751,60.82916,60.66102,54.31362
44.64292,60.68329,59.94108,65.72049,63.44832,66.2357,69.73033,67.61381,72.27588,73.92244,73.64061,81.137,78.15584,77.84531,79.365,81.24827,83.05419,87.19375,84.45531,84.48544,61.63845,65.26072,50.47053,54.04141,53.29479,49.49518,51.46866,51.88788
45.62892,56.98433,56.86512,59.15819,58.47932,57.23776,60.20925,56.41756,60.57172,56.93303,56.2841,56.43662,54.75577,54.92026,52.06405,53.59426,54.97739,51.74229,51.80925,50.58386,71.10996,58.79792,52.42283,51.63758,52.14992,50.73041,49.80422,48.96596
46.61492,61.16496,62.70027,59.5663,57.02418,59.0976,59.37931,55.20977,57.84195,59.47584,60.25534,57.13553,54.98453,54.56507,53.77458,52.84449,55.52976,54.555,54.69691,52.99469,52.84669,52.42947,51.12997,50.94765,50.26869,51.09334,51.74722,50.76345
47.60092,59.15632,57.9205,55.69304,56.44831,54.68008,54.10929,55.00772,55.53367,52.86056,54.31316,51.61897,54.85398,52.26515,54.43892,52.43247,53.78929,52.42583,50.36425,50.78968,49.1809,50.02327,45.89917,47.46889,48.02445,48.8504,45.83819,45.96355
48.58692,54.41464,54.56627,51.54545,48.87311,47.91678,50.99997,51.89824,49.90891,48.46322,50.86586,46.23009,49.5397,46.44042,46.31068,49.60888,49.37364,47.29741,47.30204,48.17893,45.51823,44.99378,47.00628,44.41875,44.69788,46.62468,43.59775,47.68303
49.57292,52.59159,53.55931,50.0417,50.11934,50.15492,49.4766,51.77476,49.53861,52.51157,47.71779,50.30633,48.4104,45.57067,47.52455,47.67299,52.15089,47.38017,49.15585,49.60671,53.62313,50.26281,48.01808,46.15575,46.57906,45.77782,44.77002,49.11758
50.55892,49.62392,49.87799,50.69627,46.01949,49.21168,50.66801,51.58774,50.72156,49.81581,49.25181,50.01722,46.40588,45.65331,45.6712,45.27302,46.31062,45.77792,45.22903,46.29157,54.05959,54.06548,57.05665,52.37753,54.76653,52.49479,50.99562,52.33858
51.54492,38.69256,45.36043,47.63032,47.66504,47.16586,46.96952,51.75467,49.24329,50.3522,51.91972,52.77491,50.55442,51.14364,48.1869,52.1871,46.33194,49.59327,46.68809,47.19822,46.11529,44.2363,50.772,47.92462,47.56375,47.68688,50.0634,46.97849
52.53092,39.76414,39.67655,47.34512,47.70527,46.62136,47.94211,46.2144,50.17213,51.0569,55.76683,52.44725,62.85853,64.09007,67.78147,69.93255,74.1811,70.62232,71.96743,66.75673,45.18976,51.78907,42.00368,40.98411,41.61314,38.23115,40.88087,41.17987
53.51692,35.64254,40.63228,41.89718,42.92579,41.33513,42.44405,42.91838,40.90255,41.16273,45.41819,42.27653,43.13949,39.36398,39.87213,39.3258,40.92042,37.73071,40.94824,40.37345,39.56945,40.16116,39.93995,38.65696,36.95224,37.46539,37.41461,39.05788
54.50292,40.75084,41.57683,42.1924,40.27351,43.59222,42.01479,42.07125,40.26851,42.8134,40.58096,43.05409,40.57573,44.46024,39.2883,39.49012,42.91696,40.16332,41.36721,42.77719,40.87405,39.81193,42.83085,40.84917,42.49858,40.18194,35.44199,41.76247
55.48892,38.77737,38.60588,36.39039,37.21308,36.56032,40.73903,38.96173,40.21126,40.59981,41.70326,37.3564,38.83282,40.07586,38.22217,37.18377,40.11463,39.77387,39.50284,43.38717,40.63325,41.98884,38.97639,40.05628,40.67481,41.40606,40.9761,40.30489
56.47492,38.25832,37.52804,34.84517,32.52689,36.5865,35.55542,38.08432,35.10881,39.54593,36.77442,36.59424,38.22612,37.41171,39.35945,37.57962,37.11673,38.79571,37.3307,39.48081,41.43495,39.40164,40.73213,39.27545,40.39206,39.75461,41.27487,40.78585
57.46092,35.05055,36.86019,32.88581,33.98921,35.23828,35.68315,35.55917,34.15603,34.52992,35.64142,35.34432,37.96956,36.34012,36.21583,35.4149,36.80362,36.02405,37.34768,36.58235,40.28547,38.5211,38.99003,36.30108,35.60589,36.7432,37.09692,35.57783
58.44692,36.81662,35.5422,33.39241,36.71842,36.65793,36.56167,35.18431,35.16003,37.38796,39.53508,37.78577,37.67443,37.91615,38.25793,37.95723,37.34184,37.10156,38.26602,37.36344,39.37329,40.98322,43.15157,40.34128,39.30527,39.11319,40.78437,41.68032
59.43292,37.98631,33.98451,34.13007,34.59578,35.8974,36.25905,37.83291,35.42867,35.58117,39.40498,37.36827,37.83415,37.44361,35.147,38.75486,38.24107,38.84468,36.50635,36.43383,40.94603,36.92822,41.82595,41.11938,40.01658,39.64281,40.42244,40.87995
59.98392,36.31169,24.06257,44.93625,28.43801,27.43801,25.43684,30.74971,24.18772,35.12397,29.18772,42.12397,27.06257,18.62574,31.87485,31.37544,26.18772,36.68713,31.37426,45.68596,45.93625,33.62456,48.87368,31.18772,34.06257,29.31287,28.50059,35.81228